2024/8/1 	 14:03:48 
 This file comes from Vt only measurement 	 1.000000E-1 
 Voltage Sensitivity 	 0.000000E+0 
 Sampling rate 	 200 
 Number of samples per channel 	 -1 
 No filter from Labview 	 	 	 
 	 
 ***End_of_Header*** 
 	 Time 	  Voltage 	 Filtered Voltage 	 
	0.000000	0.452116
	0.005000	0.399496
	0.010000	0.432384
	0.015000	0.478426
	0.020000	0.448827
	0.025000	0.392919
	0.030000	0.429095
	0.035000	0.481715
	0.040000	0.452116
	0.045000	0.402785
	0.050000	0.425806
	0.055000	0.478426
	0.060000	0.448827
	0.065000	0.402785
	0.070000	0.432384
	0.075000	0.481715
	0.080000	0.452116
	0.085000	0.402785
	0.090000	0.438961
	0.095000	0.485003
	0.100000	0.452116
	0.105000	0.409363
	0.110000	0.435672
	0.115000	0.485003
	0.120000	0.452116
	0.125000	0.406074
	0.130000	0.438961
	0.135000	0.485003
	0.140000	0.455405
	0.145000	0.406074
	0.150000	0.442250
	0.155000	0.485003
	0.160000	0.448827
	0.165000	0.406074
	0.170000	0.438961
	0.175000	0.485003
	0.180000	0.452116
	0.185000	0.409363
	0.190000	0.438961
	0.195000	0.485003
	0.200000	0.452116
	0.205000	0.406074
	0.210000	0.438961
	0.215000	0.488292
	0.220000	0.455405
	0.225000	0.409363
	0.230000	0.438961
	0.235000	0.488292
	0.240000	0.452116
	0.245000	0.409363
	0.250000	0.435672
	0.255000	0.485003
	0.260000	0.455405
	0.265000	0.406074
	0.270000	0.442250
	0.275000	0.485003
	0.280000	0.455405
	0.285000	0.402785
	0.290000	0.442250
	0.295000	0.485003
	0.300000	0.452116
	0.305000	0.406074
	0.310000	0.435672
	0.315000	0.485003
	0.320000	0.452116
	0.325000	0.406074
	0.330000	0.438961
	0.335000	0.485003
	0.340000	0.455405
	0.345000	0.406074
	0.350000	0.442250
	0.355000	0.485003
	0.360000	0.455405
	0.365000	0.409363
	0.370000	0.442250
	0.375000	0.485003
	0.380000	0.458694
	0.385000	0.409363
	0.390000	0.442250
	0.395000	0.488292
	0.400000	0.455405
	0.405000	0.412651
	0.410000	0.438961
	0.415000	0.488292
	0.420000	0.455405
	0.425000	0.409363
	0.430000	0.442250
	0.435000	0.491581
	0.440000	0.455405
	0.445000	0.409363
	0.450000	0.438961
	0.455000	0.485003
	0.460000	0.452116
	0.465000	0.406074
	0.470000	0.442250
	0.475000	0.488292
	0.480000	0.458694
	0.485000	0.409363
	0.490000	0.438961
	0.495000	0.488292
	0.500000	0.455405
	0.505000	0.412651
	0.510000	0.442250
	0.515000	0.488292
	0.520000	0.455405
	0.525000	0.409363
	0.530000	0.445539
	0.535000	0.485003
	0.540000	0.455405
	0.545000	0.406074
	0.550000	0.442250
	0.555000	0.485003
	0.560000	0.452116
	0.565000	0.409363
	0.570000	0.442250
	0.575000	0.485003
	0.580000	0.458694
	0.585000	0.406074
	0.590000	0.438961
	0.595000	0.488292
	0.600000	0.455405
	0.605000	0.409363
	0.610000	0.442250
	0.615000	0.488292
	0.620000	0.458694
	0.625000	0.406074
	0.630000	0.438961
	0.635000	0.488292
	0.640000	0.455405
	0.645000	0.409363
	0.650000	0.438961
	0.655000	0.491581
	0.660000	0.458694
	0.665000	0.402785
	0.670000	0.442250
	0.675000	0.488292
	0.680000	0.455405
	0.685000	0.406074
	0.690000	0.442250
	0.695000	0.491581
	0.700000	0.455405
	0.705000	0.409363
	0.710000	0.445539
	0.715000	0.488292
	0.720000	0.458694
	0.725000	0.412651
	0.730000	0.442250
	0.735000	0.485003
	0.740000	0.455405
	0.745000	0.406074
	0.750000	0.438961
	0.755000	0.488292
	0.760000	0.458694
	0.765000	0.409363
	0.770000	0.445539
	0.775000	0.491581
	0.780000	0.455405
	0.785000	0.406074
	0.790000	0.442250
	0.795000	0.488292
	0.800000	0.455405
	0.805000	0.412651
	0.810000	0.445539
	0.815000	0.485003
	0.820000	0.455405
	0.825000	0.409363
	0.830000	0.445539
	0.835000	0.488292
	0.840000	0.458694
	0.845000	0.409363
	0.850000	0.445539
	0.855000	0.488292
	0.860000	0.455405
	0.865000	0.412651
	0.870000	0.438961
	0.875000	0.488292
	0.880000	0.458694
	0.885000	0.412651
	0.890000	0.438961
	0.895000	0.485003
	0.900000	0.455405
	0.905000	0.406074
	0.910000	0.438961
	0.915000	0.485003
	0.920000	0.452116
	0.925000	0.412651
	0.930000	0.438961
	0.935000	0.488292
	0.940000	0.448827
	0.945000	0.409363
	0.950000	0.442250
	0.955000	0.488292
	0.960000	0.455405
	0.965000	0.409363
	0.970000	0.445539
	0.975000	0.491581
	0.980000	0.458694
	0.985000	0.412651
	0.990000	0.442250
	0.995000	0.491581
	1.000000	0.458694
	1.005000	0.412651
	1.010000	0.445539
	1.015000	0.491581
	1.020000	0.448827
	1.025000	0.409363
	1.030000	0.442250
	1.035000	0.488292
	1.040000	0.458694
	1.045000	0.409363
	1.050000	0.442250
	1.055000	0.491581
	1.060000	0.458694
	1.065000	0.409363
	1.070000	0.442250
	1.075000	0.488292
	1.080000	0.458694
	1.085000	0.406074
	1.090000	0.445539
	1.095000	0.488292
	1.100000	0.458694
	1.105000	0.409363
	1.110000	0.448827
	1.115000	0.491581
	1.120000	0.452116
	1.125000	0.412651
	1.130000	0.445539
	1.135000	0.485003
	1.140000	0.455405
	1.145000	0.406074
	1.150000	0.445539
	1.155000	0.488292
	1.160000	0.455405
	1.165000	0.409363
	1.170000	0.448827
	1.175000	0.491581
	1.180000	0.458694
	1.185000	0.406074
	1.190000	0.445539
	1.195000	0.491581
	1.200000	0.455405
	1.205000	0.409363
	1.210000	0.448827
	1.215000	0.491581
	1.220000	0.455405
	1.225000	0.409363
	1.230000	0.448827
	1.235000	0.491581
	1.240000	0.455405
	1.245000	0.409363
	1.250000	0.445539
	1.255000	0.488292
	1.260000	0.458694
	1.265000	0.409363
	1.270000	0.445539
	1.275000	0.491581
	1.280000	0.452116
	1.285000	0.412651
	1.290000	0.442250
	1.295000	0.488292
	1.300000	0.458694
	1.305000	0.412651
	1.310000	0.442250
	1.315000	0.491581
	1.320000	0.458694
	1.325000	0.412651
	1.330000	0.448827
	1.335000	0.491581
	1.340000	0.455405
	1.345000	0.409363
	1.350000	0.445539
	1.355000	0.491581
	1.360000	0.458694
	1.365000	0.412651
	1.370000	0.442250
	1.375000	0.491581
	1.380000	0.455405
	1.385000	0.409363
	1.390000	0.445539
	1.395000	0.491581
	1.400000	0.455405
	1.405000	0.412651
	1.410000	0.442250
	1.415000	0.491581
	1.420000	0.458694
	1.425000	0.412651
	1.430000	0.442250
	1.435000	0.491581
	1.440000	0.455405
	1.445000	0.409363
	1.450000	0.448827
	1.455000	0.491581
	1.460000	0.458694
	1.465000	0.415940
	1.470000	0.448827
	1.475000	0.485003
	1.480000	0.461982
	1.485000	0.412651
	1.490000	0.445539
	1.495000	0.494869
	1.500000	0.452116
	1.505000	0.409363
	1.510000	0.445539
	1.515000	0.491581
	1.520000	0.461982
	1.525000	0.409363
	1.530000	0.445539
	1.535000	0.488292
	1.540000	0.455405
	1.545000	0.415940
	1.550000	0.445539
	1.555000	0.491581
	1.560000	0.458694
	1.565000	0.412651
	1.570000	0.445539
	1.575000	0.491581
	1.580000	0.461982
	1.585000	0.415940
	1.590000	0.448827
	1.595000	0.488292
	1.600000	0.458694
	1.605000	0.419229
	1.610000	0.445539
	1.615000	0.491581
	1.620000	0.458694
	1.625000	0.412651
	1.630000	0.448827
	1.635000	0.491581
	1.640000	0.455405
	1.645000	0.409363
	1.650000	0.445539
	1.655000	0.491581
	1.660000	0.458694
	1.665000	0.412651
	1.670000	0.445539
	1.675000	0.491581
	1.680000	0.458694
	1.685000	0.409363
	1.690000	0.448827
	1.695000	0.494869
	1.700000	0.455405
	1.705000	0.412651
	1.710000	0.448827
	1.715000	0.488292
	1.720000	0.452116
	1.725000	0.412651
	1.730000	0.452116
	1.735000	0.491581
	1.740000	0.455405
	1.745000	0.412651
	1.750000	0.448827
	1.755000	0.494869
	1.760000	0.461982
	1.765000	0.409363
	1.770000	0.445539
	1.775000	0.491581
	1.780000	0.458694
	1.785000	0.412651
	1.790000	0.448827
	1.795000	0.494869
	1.800000	0.458694
	1.805000	0.412651
	1.810000	0.452116
	1.815000	0.494869
	1.820000	0.458694
	1.825000	0.406074
	1.830000	0.445539
	1.835000	0.491581
	1.840000	0.455405
	1.845000	0.412651
	1.850000	0.448827
	1.855000	0.491581
	1.860000	0.455405
	1.865000	0.409363
	1.870000	0.448827
	1.875000	0.491581
	1.880000	0.458694
	1.885000	0.412651
	1.890000	0.452116
	1.895000	0.494869
	1.900000	0.455405
	1.905000	0.412651
	1.910000	0.445539
	1.915000	0.494869
	1.920000	0.458694
	1.925000	0.412651
	1.930000	0.445539
	1.935000	0.491581
	1.940000	0.461982
	1.945000	0.409363
	1.950000	0.445539
	1.955000	0.491581
	1.960000	0.455405
	1.965000	0.406074
	1.970000	0.445539
	1.975000	0.491581
	1.980000	0.452116
	1.985000	0.409363
	1.990000	0.445539
	1.995000	0.491581
	2.000000	0.452116
	2.005000	0.412651
	2.010000	0.442250
	2.015000	0.494869
	2.020000	0.455405
	2.025000	0.415940
	2.030000	0.452116
	2.035000	0.498158
	2.040000	0.465271
	2.045000	0.415940
	2.050000	0.458694
	2.055000	0.501447
	2.060000	0.468560
	2.065000	0.425806
	2.070000	0.465271
	2.075000	0.504736
	2.080000	0.468560
	2.085000	0.429095
	2.090000	0.465271
	2.095000	0.511313
	2.100000	0.478426
	2.105000	0.435672
	2.110000	0.465271
	2.115000	0.508024
	2.120000	0.471848
	2.125000	0.425806
	2.130000	0.458694
	2.135000	0.501447
	2.140000	0.465271
	2.145000	0.425806
	2.150000	0.455405
	2.155000	0.501447
	2.160000	0.468560
	2.165000	0.422518
	2.170000	0.455405
	2.175000	0.504736
	2.180000	0.468560
	2.185000	0.425806
	2.190000	0.458694
	2.195000	0.504736
	2.200000	0.471848
	2.205000	0.425806
	2.210000	0.458694
	2.215000	0.504736
	2.220000	0.465271
	2.225000	0.419229
	2.230000	0.452116
	2.235000	0.498158
	2.240000	0.461982
	2.245000	0.422518
	2.250000	0.452116
	2.255000	0.498158
	2.260000	0.461982
	2.265000	0.412651
	2.270000	0.448827
	2.275000	0.491581
	2.280000	0.458694
	2.285000	0.419229
	2.290000	0.448827
	2.295000	0.491581
	2.300000	0.461982
	2.305000	0.412651
	2.310000	0.448827
	2.315000	0.494869
	2.320000	0.455405
	2.325000	0.409363
	2.330000	0.448827
	2.335000	0.491581
	2.340000	0.455405
	2.345000	0.409363
	2.350000	0.445539
	2.355000	0.488292
	2.360000	0.455405
	2.365000	0.409363
	2.370000	0.448827
	2.375000	0.498158
	2.380000	0.452116
	2.385000	0.412651
	2.390000	0.448827
	2.395000	0.491581
	2.400000	0.448827
	2.405000	0.415940
	2.410000	0.445539
	2.415000	0.491581
	2.420000	0.455405
	2.425000	0.415940
	2.430000	0.448827
	2.435000	0.491581
	2.440000	0.452116
	2.445000	0.409363
	2.450000	0.445539
	2.455000	0.491581
	2.460000	0.455405
	2.465000	0.412651
	2.470000	0.445539
	2.475000	0.491581
	2.480000	0.455405
	2.485000	0.412651
	2.490000	0.448827
	2.495000	0.488292
	2.500000	0.452116
	2.505000	0.412651
	2.510000	0.448827
	2.515000	0.488292
	2.520000	0.448827
	2.525000	0.409363
	2.530000	0.448827
	2.535000	0.491581
	2.540000	0.455405
	2.545000	0.406074
	2.550000	0.442250
	2.555000	0.491581
	2.560000	0.455405
	2.565000	0.412651
	2.570000	0.442250
	2.575000	0.491581
	2.580000	0.448827
	2.585000	0.406074
	2.590000	0.445539
	2.595000	0.488292
	2.600000	0.458694
	2.605000	0.409363
	2.610000	0.448827
	2.615000	0.491581
	2.620000	0.455405
	2.625000	0.415940
	2.630000	0.445539
	2.635000	0.488292
	2.640000	0.452116
	2.645000	0.412651
	2.650000	0.445539
	2.655000	0.485003
	2.660000	0.452116
	2.665000	0.412651
	2.670000	0.445539
	2.675000	0.491581
	2.680000	0.455405
	2.685000	0.412651
	2.690000	0.442250
	2.695000	0.485003
	2.700000	0.452116
	2.705000	0.409363
	2.710000	0.445539
	2.715000	0.488292
	2.720000	0.452116
	2.725000	0.409363
	2.730000	0.445539
	2.735000	0.488292
	2.740000	0.448827
	2.745000	0.415940
	2.750000	0.445539
	2.755000	0.488292
	2.760000	0.448827
	2.765000	0.412651
	2.770000	0.445539
	2.775000	0.488292
	2.780000	0.452116
	2.785000	0.406074
	2.790000	0.445539
	2.795000	0.488292
	2.800000	0.445539
	2.805000	0.409363
	2.810000	0.448827
	2.815000	0.488292
	2.820000	0.455405
	2.825000	0.412651
	2.830000	0.448827
	2.835000	0.491581
	2.840000	0.452116
	2.845000	0.409363
	2.850000	0.448827
	2.855000	0.488292
	2.860000	0.448827
	2.865000	0.412651
	2.870000	0.442250
	2.875000	0.488292
	2.880000	0.452116
	2.885000	0.406074
	2.890000	0.442250
	2.895000	0.491581
	2.900000	0.452116
	2.905000	0.409363
	2.910000	0.445539
	2.915000	0.491581
	2.920000	0.448827
	2.925000	0.412651
	2.930000	0.442250
	2.935000	0.485003
	2.940000	0.448827
	2.945000	0.406074
	2.950000	0.442250
	2.955000	0.488292
	2.960000	0.452116
	2.965000	0.409363
	2.970000	0.442250
	2.975000	0.491581
	2.980000	0.448827
	2.985000	0.406074
	2.990000	0.445539
	2.995000	0.488292
	3.000000	0.452116
	3.005000	0.412651
	3.010000	0.438961
	3.015000	0.485003
	3.020000	0.448827
	3.025000	0.412651
	3.030000	0.442250
	3.035000	0.488292
	3.040000	0.445539
	3.045000	0.406074
	3.050000	0.442250
	3.055000	0.491581
	3.060000	0.452116
	3.065000	0.409363
	3.070000	0.445539
	3.075000	0.491581
	3.080000	0.448827
	3.085000	0.406074
	3.090000	0.445539
	3.095000	0.491581
	3.100000	0.455405
	3.105000	0.415940
	3.110000	0.448827
	3.115000	0.488292
	3.120000	0.448827
	3.125000	0.409363
	3.130000	0.445539
	3.135000	0.491581
	3.140000	0.448827
	3.145000	0.412651
	3.150000	0.445539
	3.155000	0.488292
	3.160000	0.448827
	3.165000	0.409363
	3.170000	0.448827
	3.175000	0.485003
	3.180000	0.448827
	3.185000	0.409363
	3.190000	0.445539
	3.195000	0.485003
	3.200000	0.448827
	3.205000	0.412651
	3.210000	0.445539
	3.215000	0.491581
	3.220000	0.455405
	3.225000	0.409363
	3.230000	0.452116
	3.235000	0.494869
	3.240000	0.452116
	3.245000	0.409363
	3.250000	0.445539
	3.255000	0.488292
	3.260000	0.455405
	3.265000	0.409363
	3.270000	0.445539
	3.275000	0.488292
	3.280000	0.452116
	3.285000	0.406074
	3.290000	0.445539
	3.295000	0.485003
	3.300000	0.452116
	3.305000	0.412651
	3.310000	0.445539
	3.315000	0.488292
	3.320000	0.448827
	3.325000	0.409363
	3.330000	0.448827
	3.335000	0.494869
	3.340000	0.452116
	3.345000	0.409363
	3.350000	0.445539
	3.355000	0.485003
	3.360000	0.455405
	3.365000	0.412651
	3.370000	0.445539
	3.375000	0.491581
	3.380000	0.448827
	3.385000	0.412651
	3.390000	0.445539
	3.395000	0.491581
	3.400000	0.452116
	3.405000	0.412651
	3.410000	0.448827
	3.415000	0.488292
	3.420000	0.452116
	3.425000	0.406074
	3.430000	0.448827
	3.435000	0.488292
	3.440000	0.452116
	3.445000	0.409363
	3.450000	0.448827
	3.455000	0.491581
	3.460000	0.452116
	3.465000	0.406074
	3.470000	0.445539
	3.475000	0.491581
	3.480000	0.448827
	3.485000	0.406074
	3.490000	0.442250
	3.495000	0.488292
	3.500000	0.455405
	3.505000	0.402785
	3.510000	0.448827
	3.515000	0.491581
	3.520000	0.452116
	3.525000	0.409363
	3.530000	0.448827
	3.535000	0.491581
	3.540000	0.452116
	3.545000	0.412651
	3.550000	0.445539
	3.555000	0.491581
	3.560000	0.452116
	3.565000	0.406074
	3.570000	0.448827
	3.575000	0.488292
	3.580000	0.452116
	3.585000	0.409363
	3.590000	0.448827
	3.595000	0.491581
	3.600000	0.448827
	3.605000	0.409363
	3.610000	0.448827
	3.615000	0.491581
	3.620000	0.452116
	3.625000	0.412651
	3.630000	0.445539
	3.635000	0.488292
	3.640000	0.452116
	3.645000	0.406074
	3.650000	0.445539
	3.655000	0.488292
	3.660000	0.448827
	3.665000	0.406074
	3.670000	0.448827
	3.675000	0.488292
	3.680000	0.455405
	3.685000	0.409363
	3.690000	0.442250
	3.695000	0.491581
	3.700000	0.448827
	3.705000	0.412651
	3.710000	0.442250
	3.715000	0.488292
	3.720000	0.448827
	3.725000	0.409363
	3.730000	0.448827
	3.735000	0.488292
	3.740000	0.448827
	3.745000	0.409363
	3.750000	0.445539
	3.755000	0.494869
	3.760000	0.452116
	3.765000	0.409363
	3.770000	0.445539
	3.775000	0.491581
	3.780000	0.458694
	3.785000	0.409363
	3.790000	0.448827
	3.795000	0.491581
	3.800000	0.452116
	3.805000	0.409363
	3.810000	0.448827
	3.815000	0.491581
	3.820000	0.452116
	3.825000	0.412651
	3.830000	0.452116
	3.835000	0.491581
	3.840000	0.452116
	3.845000	0.412651
	3.850000	0.448827
	3.855000	0.494869
	3.860000	0.455405
	3.865000	0.412651
	3.870000	0.448827
	3.875000	0.498158
	3.880000	0.448827
	3.885000	0.412651
	3.890000	0.455405
	3.895000	0.491581
	3.900000	0.448827
	3.905000	0.406074
	3.910000	0.448827
	3.915000	0.491581
	3.920000	0.452116
	3.925000	0.409363
	3.930000	0.452116
	3.935000	0.494869
	3.940000	0.452116
	3.945000	0.412651
	3.950000	0.452116
	3.955000	0.488292
	3.960000	0.458694
	3.965000	0.415940
	3.970000	0.452116
	3.975000	0.498158
	3.980000	0.455405
	3.985000	0.419229
	3.990000	0.461982
	3.995000	0.498158
	4.000000	0.461982
	4.005000	0.422518
	4.010000	0.461982
	4.015000	0.504736
	4.020000	0.461982
	4.025000	0.422518
	4.030000	0.461982
	4.035000	0.504736
	4.040000	0.468560
	4.045000	0.425806
	4.050000	0.465271
	4.055000	0.511313
	4.060000	0.468560
	4.065000	0.425806
	4.070000	0.468560
	4.075000	0.508024
	4.080000	0.471848
	4.085000	0.429095
	4.090000	0.465271
	4.095000	0.498158
	4.100000	0.468560
	4.105000	0.429095
	4.110000	0.465271
	4.115000	0.508024
	4.120000	0.461982
	4.125000	0.425806
	4.130000	0.461982
	4.135000	0.504736
	4.140000	0.468560
	4.145000	0.422518
	4.150000	0.465271
	4.155000	0.501447
	4.160000	0.465271
	4.165000	0.422518
	4.170000	0.458694
	4.175000	0.504736
	4.180000	0.468560
	4.185000	0.422518
	4.190000	0.465271
	4.195000	0.504736
	4.200000	0.458694
	4.205000	0.419229
	4.210000	0.458694
	4.215000	0.504736
	4.220000	0.458694
	4.225000	0.422518
	4.230000	0.458694
	4.235000	0.501447
	4.240000	0.458694
	4.245000	0.415940
	4.250000	0.461982
	4.255000	0.501447
	4.260000	0.465271
	4.265000	0.422518
	4.270000	0.458694
	4.275000	0.498158
	4.280000	0.458694
	4.285000	0.419229
	4.290000	0.455405
	4.295000	0.501447
	4.300000	0.458694
	4.305000	0.422518
	4.310000	0.455405
	4.315000	0.498158
	4.320000	0.458694
	4.325000	0.419229
	4.330000	0.455405
	4.335000	0.494869
	4.340000	0.458694
	4.345000	0.415940
	4.350000	0.458694
	4.355000	0.498158
	4.360000	0.461982
	4.365000	0.422518
	4.370000	0.458694
	4.375000	0.498158
	4.380000	0.455405
	4.385000	0.419229
	4.390000	0.455405
	4.395000	0.498158
	4.400000	0.458694
	4.405000	0.419229
	4.410000	0.455405
	4.415000	0.498158
	4.420000	0.458694
	4.425000	0.419229
	4.430000	0.445539
	4.435000	0.494869
	4.440000	0.461982
	4.445000	0.419229
	4.450000	0.455405
	4.455000	0.501447
	4.460000	0.455405
	4.465000	0.419229
	4.470000	0.458694
	4.475000	0.501447
	4.480000	0.458694
	4.485000	0.425806
	4.490000	0.458694
	4.495000	0.498158
	4.500000	0.461982
	4.505000	0.419229
	4.510000	0.458694
	4.515000	0.498158
	4.520000	0.455405
	4.525000	0.415940
	4.530000	0.458694
	4.535000	0.501447
	4.540000	0.455405
	4.545000	0.415940
	4.550000	0.452116
	4.555000	0.498158
	4.560000	0.458694
	4.565000	0.419229
	4.570000	0.458694
	4.575000	0.494869
	4.580000	0.455405
	4.585000	0.419229
	4.590000	0.452116
	4.595000	0.498158
	4.600000	0.458694
	4.605000	0.419229
	4.610000	0.458694
	4.615000	0.498158
	4.620000	0.455405
	4.625000	0.419229
	4.630000	0.455405
	4.635000	0.491581
	4.640000	0.458694
	4.645000	0.415940
	4.650000	0.458694
	4.655000	0.494869
	4.660000	0.452116
	4.665000	0.409363
	4.670000	0.455405
	4.675000	0.498158
	4.680000	0.458694
	4.685000	0.412651
	4.690000	0.452116
	4.695000	0.494869
	4.700000	0.452116
	4.705000	0.422518
	4.710000	0.452116
	4.715000	0.494869
	4.720000	0.455405
	4.725000	0.412651
	4.730000	0.455405
	4.735000	0.494869
	4.740000	0.448827
	4.745000	0.415940
	4.750000	0.455405
	4.755000	0.494869
	4.760000	0.458694
	4.765000	0.415940
	4.770000	0.455405
	4.775000	0.501447
	4.780000	0.452116
	4.785000	0.419229
	4.790000	0.455405
	4.795000	0.494869
	4.800000	0.455405
	4.805000	0.419229
	4.810000	0.458694
	4.815000	0.494869
	4.820000	0.455405
	4.825000	0.415940
	4.830000	0.455405
	4.835000	0.498158
	4.840000	0.452116
	4.845000	0.412651
	4.850000	0.458694
	4.855000	0.494869
	4.860000	0.458694
	4.865000	0.419229
	4.870000	0.455405
	4.875000	0.498158
	4.880000	0.452116
	4.885000	0.415940
	4.890000	0.458694
	4.895000	0.494869
	4.900000	0.452116
	4.905000	0.419229
	4.910000	0.452116
	4.915000	0.498158
	4.920000	0.455405
	4.925000	0.412651
	4.930000	0.458694
	4.935000	0.498158
	4.940000	0.458694
	4.945000	0.415940
	4.950000	0.455405
	4.955000	0.494869
	4.960000	0.458694
	4.965000	0.419229
	4.970000	0.452116
	4.975000	0.498158
	4.980000	0.455405
	4.985000	0.415940
	4.990000	0.455405
	4.995000	0.491581
	5.000000	0.455405
	5.005000	0.415940
	5.010000	0.458694
	5.015000	0.494869
	5.020000	0.452116
	5.025000	0.415940
	5.030000	0.452116
	5.035000	0.494869
	5.040000	0.452116
	5.045000	0.412651
	5.050000	0.458694
	5.055000	0.494869
	5.060000	0.452116
	5.065000	0.409363
	5.070000	0.458694
	5.075000	0.498158
	5.080000	0.452116
	5.085000	0.412651
	5.090000	0.452116
	5.095000	0.494869
	5.100000	0.448827
	5.105000	0.415940
	5.110000	0.455405
	5.115000	0.498158
	5.120000	0.452116
	5.125000	0.412651
	5.130000	0.458694
	5.135000	0.494869
	5.140000	0.452116
	5.145000	0.412651
	5.150000	0.455405
	5.155000	0.491581
	5.160000	0.455405
	5.165000	0.412651
	5.170000	0.455405
	5.175000	0.494869
	5.180000	0.452116
	5.185000	0.415940
