2024/7/2 	 15:10:24 
 This file comes from Vt only measurement 	 1.000000E-1 
 Voltage Sensitivity 	 0.000000E+0 
 Sampling rate 	 500 
 Number of samples per channel 	 -1 
 No filter from Labview 	 	 	 
 	 
 ***End_of_Header*** 
 	 Time 	  Voltage 	 Filtered Voltage 	 
	0.000000	-1.727470
	0.002000	-1.759703
	0.004000	-1.762927
	0.006000	-1.737140
	0.008000	-1.692013
	0.010000	-1.637216
	0.012000	-1.608205
	0.014000	-1.598535
	0.016000	-1.627546
	0.018000	-1.669449
	0.020000	-1.721023
	0.022000	-1.759703
	0.024000	-1.762927
	0.026000	-1.733916
	0.028000	-1.688789
	0.030000	-1.637216
	0.032000	-1.608205
	0.034000	-1.598535
	0.036000	-1.624322
	0.038000	-1.675896
	0.040000	-1.727470
	0.042000	-1.759703
	0.044000	-1.762927
	0.046000	-1.733916
	0.048000	-1.698459
	0.050000	-1.633992
	0.052000	-1.608205
	0.054000	-1.604982
	0.056000	-1.624322
	0.058000	-1.679119
	0.060000	-1.721023
	0.062000	-1.759703
	0.064000	-1.766150
	0.066000	-1.733916
	0.068000	-1.685566
	0.070000	-1.646886
	0.072000	-1.611429
	0.074000	-1.598535
	0.076000	-1.627546
	0.078000	-1.672673
	0.080000	-1.724246
	0.082000	-1.759703
	0.084000	-1.762927
	0.086000	-1.740363
	0.088000	-1.688789
	0.090000	-1.640439
	0.092000	-1.611429
	0.094000	-1.601759
	0.096000	-1.624322
	0.098000	-1.675896
	0.100000	-1.727470
	0.102000	-1.762927
	0.104000	-1.762927
	0.106000	-1.743586
	0.108000	-1.692013
	0.110000	-1.637216
	0.112000	-1.601759
	0.114000	-1.611429
	0.116000	-1.624322
	0.118000	-1.672673
	0.120000	-1.721023
	0.122000	-1.759703
	0.124000	-1.766150
	0.126000	-1.740363
	0.128000	-1.688789
	0.130000	-1.646886
	0.132000	-1.614652
	0.134000	-1.598535
	0.136000	-1.624322
	0.138000	-1.679119
	0.140000	-1.724246
	0.142000	-1.759703
	0.144000	-1.762927
	0.146000	-1.733916
	0.148000	-1.692013
	0.150000	-1.646886
	0.152000	-1.608205
	0.154000	-1.604982
	0.156000	-1.624322
	0.158000	-1.675896
	0.160000	-1.721023
	0.162000	-1.766150
	0.164000	-1.769373
	0.166000	-1.743586
	0.168000	-1.698459
	0.170000	-1.643662
	0.172000	-1.614652
	0.174000	-1.601759
	0.176000	-1.624322
	0.178000	-1.675896
	0.180000	-1.724246
	0.182000	-1.762927
	0.184000	-1.766150
	0.186000	-1.740363
	0.188000	-1.695236
	0.190000	-1.643662
	0.192000	-1.608205
	0.194000	-1.601759
	0.196000	-1.630769
	0.198000	-1.672673
	0.200000	-1.730693
	0.202000	-1.759703
	0.204000	-1.766150
	0.206000	-1.733916
	0.208000	-1.698459
	0.210000	-1.653332
	0.212000	-1.608205
	0.214000	-1.608205
	0.216000	-1.624322
	0.218000	-1.675896
	0.220000	-1.730693
	0.222000	-1.759703
	0.224000	-1.772597
	0.226000	-1.737140
	0.228000	-1.695236
	0.230000	-1.646886
	0.232000	-1.617875
	0.234000	-1.601759
	0.236000	-1.630769
	0.238000	-1.679119
	0.240000	-1.724246
	0.242000	-1.762927
	0.244000	-1.762927
	0.246000	-1.743586
	0.248000	-1.695236
	0.250000	-1.646886
	0.252000	-1.608205
	0.254000	-1.604982
	0.256000	-1.630769
	0.258000	-1.669449
	0.260000	-1.724246
	0.262000	-1.762927
	0.264000	-1.759703
	0.266000	-1.743586
	0.268000	-1.701683
	0.270000	-1.646886
	0.272000	-1.608205
	0.274000	-1.608205
	0.276000	-1.624322
	0.278000	-1.675896
	0.280000	-1.724246
	0.282000	-1.762927
	0.284000	-1.769373
	0.286000	-1.737140
	0.288000	-1.698459
	0.290000	-1.650109
	0.292000	-1.608205
	0.294000	-1.604982
	0.296000	-1.630769
	0.298000	-1.675896
	0.300000	-1.727470
	0.302000	-1.762927
	0.304000	-1.762927
	0.306000	-1.746810
	0.308000	-1.698459
	0.310000	-1.646886
	0.312000	-1.611429
	0.314000	-1.604982
	0.316000	-1.630769
	0.318000	-1.675896
	0.320000	-1.730693
	0.322000	-1.759703
	0.324000	-1.769373
	0.326000	-1.743586
	0.328000	-1.698459
	0.330000	-1.646886
	0.332000	-1.614652
	0.334000	-1.611429
	0.336000	-1.627546
	0.338000	-1.669449
	0.340000	-1.724246
	0.342000	-1.762927
	0.344000	-1.769373
	0.346000	-1.746810
	0.348000	-1.698459
	0.350000	-1.653332
	0.352000	-1.614652
	0.354000	-1.614652
	0.356000	-1.627546
	0.358000	-1.675896
	0.360000	-1.724246
	0.362000	-1.766150
	0.364000	-1.769373
	0.366000	-1.743586
	0.368000	-1.701683
	0.370000	-1.650109
	0.372000	-1.608205
	0.374000	-1.611429
	0.376000	-1.630769
	0.378000	-1.675896
	0.380000	-1.721023
	0.382000	-1.756480
	0.384000	-1.775820
	0.386000	-1.740363
	0.388000	-1.698459
	0.390000	-1.650109
	0.392000	-1.617875
	0.394000	-1.608205
	0.396000	-1.627546
	0.398000	-1.679119
	0.400000	-1.724246
	0.402000	-1.762927
	0.404000	-1.766150
	0.406000	-1.746810
	0.408000	-1.698459
	0.410000	-1.653332
	0.412000	-1.614652
	0.414000	-1.604982
	0.416000	-1.624322
	0.418000	-1.679119
	0.420000	-1.727470
	0.422000	-1.762927
	0.424000	-1.766150
	0.426000	-1.743586
	0.428000	-1.708129
	0.430000	-1.650109
	0.432000	-1.611429
	0.434000	-1.608205
	0.436000	-1.627546
	0.438000	-1.675896
	0.440000	-1.721023
	0.442000	-1.766150
	0.444000	-1.769373
	0.446000	-1.743586
	0.448000	-1.708129
	0.450000	-1.650109
	0.452000	-1.617875
	0.454000	-1.608205
	0.456000	-1.630769
	0.458000	-1.679119
	0.460000	-1.721023
	0.462000	-1.762927
	0.464000	-1.772597
	0.466000	-1.743586
	0.468000	-1.698459
	0.470000	-1.659779
	0.472000	-1.614652
	0.474000	-1.611429
	0.476000	-1.627546
	0.478000	-1.669449
	0.480000	-1.721023
	0.482000	-1.759703
	0.484000	-1.775820
	0.486000	-1.746810
	0.488000	-1.704906
	0.490000	-1.646886
	0.492000	-1.614652
	0.494000	-1.604982
	0.496000	-1.627546
	0.498000	-1.672673
	0.500000	-1.727470
	0.502000	-1.762927
	0.504000	-1.772597
	0.506000	-1.746810
	0.508000	-1.701683
	0.510000	-1.653332
	0.512000	-1.617875
	0.514000	-1.611429
	0.516000	-1.627546
	0.518000	-1.679119
	0.520000	-1.727470
	0.522000	-1.759703
	0.524000	-1.772597
	0.526000	-1.746810
	0.528000	-1.704906
	0.530000	-1.650109
	0.532000	-1.617875
	0.534000	-1.608205
	0.536000	-1.624322
	0.538000	-1.672673
	0.540000	-1.721023
	0.542000	-1.766150
	0.544000	-1.769373
	0.546000	-1.743586
	0.548000	-1.704906
	0.550000	-1.656556
	0.552000	-1.611429
	0.554000	-1.608205
	0.556000	-1.627546
	0.558000	-1.669449
	0.560000	-1.730693
	0.562000	-1.766150
	0.564000	-1.762927
	0.566000	-1.746810
	0.568000	-1.698459
	0.570000	-1.650109
	0.572000	-1.621099
	0.574000	-1.608205
	0.576000	-1.630769
	0.578000	-1.669449
	0.580000	-1.727470
	0.582000	-1.756480
	0.584000	-1.769373
	0.586000	-1.746810
	0.588000	-1.698459
	0.590000	-1.656556
	0.592000	-1.614652
	0.594000	-1.604982
	0.596000	-1.624322
	0.598000	-1.675896
	0.600000	-1.724246
	0.602000	-1.762927
	0.604000	-1.775820
	0.606000	-1.746810
	0.608000	-1.704906
	0.610000	-1.650109
	0.612000	-1.617875
	0.614000	-1.604982
	0.616000	-1.630769
	0.618000	-1.669449
	0.620000	-1.721023
	0.622000	-1.756480
	0.624000	-1.769373
	0.626000	-1.746810
	0.628000	-1.701683
	0.630000	-1.656556
	0.632000	-1.617875
	0.634000	-1.608205
	0.636000	-1.627546
	0.638000	-1.669449
	0.640000	-1.727470
	0.642000	-1.759703
	0.644000	-1.769373
	0.646000	-1.746810
	0.648000	-1.708129
	0.650000	-1.650109
	0.652000	-1.617875
	0.654000	-1.604982
	0.656000	-1.630769
	0.658000	-1.679119
	0.660000	-1.724246
	0.662000	-1.756480
	0.664000	-1.772597
	0.666000	-1.756480
	0.668000	-1.711353
	0.670000	-1.656556
	0.672000	-1.617875
	0.674000	-1.604982
	0.676000	-1.630769
	0.678000	-1.672673
	0.680000	-1.721023
	0.682000	-1.759703
	0.684000	-1.769373
	0.686000	-1.746810
	0.688000	-1.704906
	0.690000	-1.656556
	0.692000	-1.617875
	0.694000	-1.608205
	0.696000	-1.627546
	0.698000	-1.672673
	0.700000	-1.730693
	0.702000	-1.759703
	0.704000	-1.772597
	0.706000	-1.750033
	0.708000	-1.704906
	0.710000	-1.650109
	0.712000	-1.617875
	0.714000	-1.601759
	0.716000	-1.630769
	0.718000	-1.672673
	0.720000	-1.717800
	0.722000	-1.759703
	0.724000	-1.772597
	0.726000	-1.750033
	0.728000	-1.704906
	0.730000	-1.656556
	0.732000	-1.621099
	0.734000	-1.611429
	0.736000	-1.627546
	0.738000	-1.672673
	0.740000	-1.721023
	0.742000	-1.759703
	0.744000	-1.766150
	0.746000	-1.756480
	0.748000	-1.714576
	0.750000	-1.656556
	0.752000	-1.621099
	0.754000	-1.604982
	0.756000	-1.627546
	0.758000	-1.672673
	0.760000	-1.724246
	0.762000	-1.762927
	0.764000	-1.779043
	0.766000	-1.746810
	0.768000	-1.708129
	0.770000	-1.656556
	0.772000	-1.614652
	0.774000	-1.611429
	0.776000	-1.630769
	0.778000	-1.675896
	0.780000	-1.724246
	0.782000	-1.762927
	0.784000	-1.775820
	0.786000	-1.753257
	0.788000	-1.708129
	0.790000	-1.663002
	0.792000	-1.614652
	0.794000	-1.604982
	0.796000	-1.633992
	0.798000	-1.669449
	0.800000	-1.724246
	0.802000	-1.762927
	0.804000	-1.772597
	0.806000	-1.746810
	0.808000	-1.711353
	0.810000	-1.656556
	0.812000	-1.617875
	0.814000	-1.608205
	0.816000	-1.630769
	0.818000	-1.672673
	0.820000	-1.727470
	0.822000	-1.759703
	0.824000	-1.779043
	0.826000	-1.759703
	0.828000	-1.711353
	0.830000	-1.663002
	0.832000	-1.624322
	0.834000	-1.608205
	0.836000	-1.627546
	0.838000	-1.675896
	0.840000	-1.721023
	0.842000	-1.762927
	0.844000	-1.772597
	0.846000	-1.750033
	0.848000	-1.704906
	0.850000	-1.663002
	0.852000	-1.617875
	0.854000	-1.598535
	0.856000	-1.627546
	0.858000	-1.672673
	0.860000	-1.724246
	0.862000	-1.772597
	0.864000	-1.772597
	0.866000	-1.756480
	0.868000	-1.711353
	0.870000	-1.659779
	0.872000	-1.617875
	0.874000	-1.608205
	0.876000	-1.627546
	0.878000	-1.672673
	0.880000	-1.717800
	0.882000	-1.766150
	0.884000	-1.769373
	0.886000	-1.753257
	0.888000	-1.711353
	0.890000	-1.656556
	0.892000	-1.617875
	0.894000	-1.611429
	0.896000	-1.633992
	0.898000	-1.672673
	0.900000	-1.724246
	0.902000	-1.769373
	0.904000	-1.782267
	0.906000	-1.759703
	0.908000	-1.717800
	0.910000	-1.666226
	0.912000	-1.627546
	0.914000	-1.608205
	0.916000	-1.627546
	0.918000	-1.672673
	0.920000	-1.721023
	0.922000	-1.769373
	0.924000	-1.779043
	0.926000	-1.759703
	0.928000	-1.714576
	0.930000	-1.659779
	0.932000	-1.621099
	0.934000	-1.604982
	0.936000	-1.627546
	0.938000	-1.672673
	0.940000	-1.727470
	0.942000	-1.766150
	0.944000	-1.779043
	0.946000	-1.759703
	0.948000	-1.711353
	0.950000	-1.663002
	0.952000	-1.621099
	0.954000	-1.614652
	0.956000	-1.630769
	0.958000	-1.672673
	0.960000	-1.724246
	0.962000	-1.766150
	0.964000	-1.779043
	0.966000	-1.756480
	0.968000	-1.711353
	0.970000	-1.669449
	0.972000	-1.621099
	0.974000	-1.614652
	0.976000	-1.630769
	0.978000	-1.669449
	0.980000	-1.721023
	0.982000	-1.769373
	0.984000	-1.775820
	0.986000	-1.756480
	0.988000	-1.717800
	0.990000	-1.663002
	0.992000	-1.627546
	0.994000	-1.611429
	0.996000	-1.627546
	0.998000	-1.675896
	1.000000	-1.730693
	1.002000	-1.762927
	1.004000	-1.779043
	1.006000	-1.759703
	1.008000	-1.714576
	1.010000	-1.669449
	1.012000	-1.627546
	1.014000	-1.608205
	1.016000	-1.633992
	1.018000	-1.672673
	1.020000	-1.727470
	1.022000	-1.769373
	1.024000	-1.779043
	1.026000	-1.759703
	1.028000	-1.721023
	1.030000	-1.659779
	1.032000	-1.624322
	1.034000	-1.614652
	1.036000	-1.627546
	1.038000	-1.669449
	1.040000	-1.730693
	1.042000	-1.762927
	1.044000	-1.779043
	1.046000	-1.759703
	1.048000	-1.721023
	1.050000	-1.666226
	1.052000	-1.621099
	1.054000	-1.611429
	1.056000	-1.630769
	1.058000	-1.679119
	1.060000	-1.727470
	1.062000	-1.769373
	1.064000	-1.779043
	1.066000	-1.766150
	1.068000	-1.714576
	1.070000	-1.672673
	1.072000	-1.627546
	1.074000	-1.614652
	1.076000	-1.633992
	1.078000	-1.675896
	1.080000	-1.727470
	1.082000	-1.769373
	1.084000	-1.785490
	1.086000	-1.762927
	1.088000	-1.717800
	1.090000	-1.666226
	1.092000	-1.630769
	1.094000	-1.614652
	1.096000	-1.624322
	1.098000	-1.672673
	1.100000	-1.727470
	1.102000	-1.762927
	1.104000	-1.779043
	1.106000	-1.766150
	1.108000	-1.724246
	1.110000	-1.672673
	1.112000	-1.627546
	1.114000	-1.617875
	1.116000	-1.630769
	1.118000	-1.675896
	1.120000	-1.724246
	1.122000	-1.775820
	1.124000	-1.782267
	1.126000	-1.766150
	1.128000	-1.717800
	1.130000	-1.669449
	1.132000	-1.627546
	1.134000	-1.614652
	1.136000	-1.637216
	1.138000	-1.675896
	1.140000	-1.727470
	1.142000	-1.769373
	1.144000	-1.782267
	1.146000	-1.766150
	1.148000	-1.721023
	1.150000	-1.669449
	1.152000	-1.630769
	1.154000	-1.611429
	1.156000	-1.633992
	1.158000	-1.669449
	1.160000	-1.724246
	1.162000	-1.772597
	1.164000	-1.779043
	1.166000	-1.759703
	1.168000	-1.727470
	1.170000	-1.669449
	1.172000	-1.627546
	1.174000	-1.611429
	1.176000	-1.633992
	1.178000	-1.675896
	1.180000	-1.730693
	1.182000	-1.769373
	1.184000	-1.782267
	1.186000	-1.766150
	1.188000	-1.727470
	1.190000	-1.672673
	1.192000	-1.630769
	1.194000	-1.614652
	1.196000	-1.630769
	1.198000	-1.675896
	1.200000	-1.724246
	1.202000	-1.766150
	1.204000	-1.788713
	1.206000	-1.766150
	1.208000	-1.721023
	1.210000	-1.663002
	1.212000	-1.630769
	1.214000	-1.621099
	1.216000	-1.627546
	1.218000	-1.672673
	1.220000	-1.730693
	1.222000	-1.762927
	1.224000	-1.782267
	1.226000	-1.762927
	1.228000	-1.727470
	1.230000	-1.669449
	1.232000	-1.630769
	1.234000	-1.617875
	1.236000	-1.633992
	1.238000	-1.675896
	1.240000	-1.727470
	1.242000	-1.769373
	1.244000	-1.785490
	1.246000	-1.766150
	1.248000	-1.727470
	1.250000	-1.672673
	1.252000	-1.627546
	1.254000	-1.614652
	1.256000	-1.630769
	1.258000	-1.672673
	1.260000	-1.730693
	1.262000	-1.779043
	1.264000	-1.782267
	1.266000	-1.759703
	1.268000	-1.724246
	1.270000	-1.675896
	1.272000	-1.627546
	1.274000	-1.611429
	1.276000	-1.630769
	1.278000	-1.669449
	1.280000	-1.724246
	1.282000	-1.772597
	1.284000	-1.785490
	1.286000	-1.759703
	1.288000	-1.727470
	1.290000	-1.675896
	1.292000	-1.630769
	1.294000	-1.617875
	1.296000	-1.633992
	1.298000	-1.679119
	1.300000	-1.724246
	1.302000	-1.772597
	1.304000	-1.779043
	1.306000	-1.769373
	1.308000	-1.721023
	1.310000	-1.672673
	1.312000	-1.630769
	1.314000	-1.608205
	1.316000	-1.630769
	1.318000	-1.672673
	1.320000	-1.727470
	1.322000	-1.769373
	1.324000	-1.785490
	1.326000	-1.766150
	1.328000	-1.724246
	1.330000	-1.669449
	1.332000	-1.633992
	1.334000	-1.611429
	1.336000	-1.630769
	1.338000	-1.675896
	1.340000	-1.727470
	1.342000	-1.769373
	1.344000	-1.782267
	1.346000	-1.772597
	1.348000	-1.724246
	1.350000	-1.675896
	1.352000	-1.630769
	1.354000	-1.617875
	1.356000	-1.630769
	1.358000	-1.672673
	1.360000	-1.724246
	1.362000	-1.769373
	1.364000	-1.782267
	1.366000	-1.769373
	1.368000	-1.721023
	1.370000	-1.675896
	1.372000	-1.630769
	1.374000	-1.611429
	1.376000	-1.630769
	1.378000	-1.675896
	1.380000	-1.724246
	1.382000	-1.769373
	1.384000	-1.782267
	1.386000	-1.766150
	1.388000	-1.730693
	1.390000	-1.682343
	1.392000	-1.633992
	1.394000	-1.617875
	1.396000	-1.627546
	1.398000	-1.675896
	1.400000	-1.724246
	1.402000	-1.769373
	1.404000	-1.788713
	1.406000	-1.769373
	1.408000	-1.724246
	1.410000	-1.672673
	1.412000	-1.633992
	1.414000	-1.614652
	1.416000	-1.637216
	1.418000	-1.669449
	1.420000	-1.724246
	1.422000	-1.769373
	1.424000	-1.782267
	1.426000	-1.762927
	1.428000	-1.724246
	1.430000	-1.672673
	1.432000	-1.640439
	1.434000	-1.617875
	1.436000	-1.633992
	1.438000	-1.672673
	1.440000	-1.721023
	1.442000	-1.769373
	1.444000	-1.782267
	1.446000	-1.766150
	1.448000	-1.724246
	1.450000	-1.675896
	1.452000	-1.637216
	1.454000	-1.617875
	1.456000	-1.637216
	1.458000	-1.672673
	1.460000	-1.724246
	1.462000	-1.766150
	1.464000	-1.785490
	1.466000	-1.769373
	1.468000	-1.727470
	1.470000	-1.682343
	1.472000	-1.633992
	1.474000	-1.617875
	1.476000	-1.637216
	1.478000	-1.669449
	1.480000	-1.721023
	1.482000	-1.769373
	1.484000	-1.782267
	1.486000	-1.769373
	1.488000	-1.727470
	1.490000	-1.679119
	1.492000	-1.637216
	1.494000	-1.614652
	1.496000	-1.630769
	1.498000	-1.672673
	1.500000	-1.724246
	1.502000	-1.766150
	1.504000	-1.782267
	1.506000	-1.772597
	1.508000	-1.730693
	1.510000	-1.675896
	1.512000	-1.637216
	1.514000	-1.624322
	1.516000	-1.630769
	1.518000	-1.669449
	1.520000	-1.721023
	1.522000	-1.772597
	1.524000	-1.788713
	1.526000	-1.769373
	1.528000	-1.730693
	1.530000	-1.679119
	1.532000	-1.633992
	1.534000	-1.624322
	1.536000	-1.630769
	1.538000	-1.669449
	1.540000	-1.721023
	1.542000	-1.769373
	1.544000	-1.782267
	1.546000	-1.769373
	1.548000	-1.737140
	1.550000	-1.679119
	1.552000	-1.633992
	1.554000	-1.621099
	1.556000	-1.633992
	1.558000	-1.675896
	1.560000	-1.721023
	1.562000	-1.766150
	1.564000	-1.782267
	1.566000	-1.769373
	1.568000	-1.733916
	1.570000	-1.682343
	1.572000	-1.630769
	1.574000	-1.617875
	1.576000	-1.627546
	1.578000	-1.672673
	1.580000	-1.727470
	1.582000	-1.766150
	1.584000	-1.785490
	1.586000	-1.772597
	1.588000	-1.730693
	1.590000	-1.682343
	1.592000	-1.637216
	1.594000	-1.614652
	1.596000	-1.627546
	1.598000	-1.672673
	1.600000	-1.717800
	1.602000	-1.762927
	1.604000	-1.791937
	1.606000	-1.772597
	1.608000	-1.733916
	1.610000	-1.682343
	1.612000	-1.643662
	1.614000	-1.624322
	1.616000	-1.633992
	1.618000	-1.672673
	1.620000	-1.714576
	1.622000	-1.769373
	1.624000	-1.779043
	1.626000	-1.772597
	1.628000	-1.733916
	1.630000	-1.682343
	1.632000	-1.637216
	1.634000	-1.621099
	1.636000	-1.633992
	1.638000	-1.672673
	1.640000	-1.724246
	1.642000	-1.762927
	1.644000	-1.785490
	1.646000	-1.772597
	1.648000	-1.727470
	1.650000	-1.682343
	1.652000	-1.640439
	1.654000	-1.621099
	1.656000	-1.633992
	1.658000	-1.675896
	1.660000	-1.717800
	1.662000	-1.766150
	1.664000	-1.791937
	1.666000	-1.769373
	1.668000	-1.727470
	1.670000	-1.682343
	1.672000	-1.633992
	1.674000	-1.624322
	1.676000	-1.633992
	1.678000	-1.672673
	1.680000	-1.724246
	1.682000	-1.766150
	1.684000	-1.782267
	1.686000	-1.769373
	1.688000	-1.730693
	1.690000	-1.682343
	1.692000	-1.633992
	1.694000	-1.624322
	1.696000	-1.627546
	1.698000	-1.679119
	1.700000	-1.721023
	1.702000	-1.769373
	1.704000	-1.791937
	1.706000	-1.769373
	1.708000	-1.727470
	1.710000	-1.685566
	1.712000	-1.633992
	1.714000	-1.617875
	1.716000	-1.633992
	1.718000	-1.672673
	1.720000	-1.721023
	1.722000	-1.766150
	1.724000	-1.791937
	1.726000	-1.766150
	1.728000	-1.733916
	1.730000	-1.688789
	1.732000	-1.643662
	1.734000	-1.617875
	1.736000	-1.633992
	1.738000	-1.672673
	1.740000	-1.724246
	1.742000	-1.759703
	1.744000	-1.785490
	1.746000	-1.772597
	1.748000	-1.730693
	1.750000	-1.685566
	1.752000	-1.633992
	1.754000	-1.621099
	1.756000	-1.637216
	1.758000	-1.669449
	1.760000	-1.721023
	1.762000	-1.762927
	1.764000	-1.791937
	1.766000	-1.775820
	1.768000	-1.730693
	1.770000	-1.685566
	1.772000	-1.640439
	1.774000	-1.624322
	1.776000	-1.633992
	1.778000	-1.666226
	1.780000	-1.724246
	1.782000	-1.772597
	1.784000	-1.791937
	1.786000	-1.769373
	1.788000	-1.737140
	1.790000	-1.685566
	1.792000	-1.640439
	1.794000	-1.621099
	1.796000	-1.624322
	1.798000	-1.672673
	1.800000	-1.727470
	1.802000	-1.769373
	1.804000	-1.785490
	1.806000	-1.779043
	1.808000	-1.737140
	1.810000	-1.679119
	1.812000	-1.643662
	1.814000	-1.624322
	1.816000	-1.640439
	1.818000	-1.672673
	1.820000	-1.724246
	1.822000	-1.769373
	1.824000	-1.791937
	1.826000	-1.775820
	1.828000	-1.740363
	1.830000	-1.685566
	1.832000	-1.643662
	1.834000	-1.624322
	1.836000	-1.637216
	1.838000	-1.675896
	1.840000	-1.727470
	1.842000	-1.766150
	1.844000	-1.785490
	1.846000	-1.779043
	1.848000	-1.740363
	1.850000	-1.685566
	1.852000	-1.646886
	1.854000	-1.627546
	1.856000	-1.640439
	1.858000	-1.679119
	1.860000	-1.717800
	1.862000	-1.775820
	1.864000	-1.785490
	1.866000	-1.779043
	1.868000	-1.737140
	1.870000	-1.685566
	1.872000	-1.643662
	1.874000	-1.627546
	1.876000	-1.630769
	1.878000	-1.672673
	1.880000	-1.727470
	1.882000	-1.766150
	1.884000	-1.785490
	1.886000	-1.779043
	1.888000	-1.737140
	1.890000	-1.692013
	1.892000	-1.640439
	1.894000	-1.624322
	1.896000	-1.640439
	1.898000	-1.679119
	1.900000	-1.724246
	1.902000	-1.772597
	1.904000	-1.788713
	1.906000	-1.779043
	1.908000	-1.733916
	1.910000	-1.688789
	1.912000	-1.643662
	1.914000	-1.621099
	1.916000	-1.637216
	1.918000	-1.672673
	1.920000	-1.727470
	1.922000	-1.762927
	1.924000	-1.785490
	1.926000	-1.775820
	1.928000	-1.740363
	1.930000	-1.685566
	1.932000	-1.643662
	1.934000	-1.621099
	1.936000	-1.637216
	1.938000	-1.672673
	1.940000	-1.717800
	1.942000	-1.766150
	1.944000	-1.791937
	1.946000	-1.775820
	1.948000	-1.737140
	1.950000	-1.695236
	1.952000	-1.646886
	1.954000	-1.624322
	1.956000	-1.637216
	1.958000	-1.675896
	1.960000	-1.721023
	1.962000	-1.766150
	1.964000	-1.785490
	1.966000	-1.782267
	1.968000	-1.743586
	1.970000	-1.685566
