2024/7/21 	 8:57:00 
 This file comes from Vt only measurement 	 1.000000E-1 
 Voltage Sensitivity 	 0.000000E+0 
 Sampling rate 	 200 
 Number of samples per channel 	 -1 
 No filter from Labview 	 	 	 
 	 
 ***End_of_Header*** 
 	 Time 	  Voltage 	 Filtered Voltage 	 
	0.000000	-0.439128
	0.005000	-0.557522
	0.010000	-0.343755
	0.015000	-0.225361
	0.020000	-0.432550
	0.025000	-0.550944
	0.030000	-0.343755
	0.035000	-0.222072
	0.040000	-0.432550
	0.045000	-0.554233
	0.050000	-0.340466
	0.055000	-0.222072
	0.060000	-0.432550
	0.065000	-0.550944
	0.070000	-0.340466
	0.075000	-0.222072
	0.080000	-0.432550
	0.085000	-0.550944
	0.090000	-0.340466
	0.095000	-0.222072
	0.100000	-0.435839
	0.105000	-0.550944
	0.110000	-0.337177
	0.115000	-0.218783
	0.120000	-0.429262
	0.125000	-0.547656
	0.130000	-0.333889
	0.135000	-0.218783
	0.140000	-0.432550
	0.145000	-0.547656
	0.150000	-0.337177
	0.155000	-0.218783
	0.160000	-0.429262
	0.165000	-0.544367
	0.170000	-0.333889
	0.175000	-0.215495
	0.180000	-0.425973
	0.185000	-0.544367
	0.190000	-0.327311
	0.195000	-0.208917
	0.200000	-0.422684
	0.205000	-0.534501
	0.210000	-0.327311
	0.215000	-0.208917
	0.220000	-0.422684
	0.225000	-0.537790
	0.230000	-0.320734
	0.235000	-0.208917
	0.240000	-0.422684
	0.245000	-0.541078
	0.250000	-0.327311
	0.255000	-0.208917
	0.260000	-0.422684
	0.265000	-0.541078
	0.270000	-0.324023
	0.275000	-0.208917
	0.280000	-0.419395
	0.285000	-0.537790
	0.290000	-0.327311
	0.295000	-0.205628
	0.300000	-0.422684
	0.305000	-0.537790
	0.310000	-0.324023
	0.315000	-0.208917
	0.320000	-0.425973
	0.325000	-0.537790
	0.330000	-0.327311
	0.335000	-0.208917
	0.340000	-0.419395
	0.345000	-0.534501
	0.350000	-0.327311
	0.355000	-0.205628
	0.360000	-0.419395
	0.365000	-0.534501
	0.370000	-0.320734
	0.375000	-0.205628
	0.380000	-0.419395
	0.385000	-0.537790
	0.390000	-0.320734
	0.395000	-0.202340
	0.400000	-0.422684
	0.405000	-0.534501
	0.410000	-0.317445
	0.415000	-0.202340
	0.420000	-0.422684
	0.425000	-0.534501
	0.430000	-0.320734
	0.435000	-0.208917
	0.440000	-0.422684
	0.445000	-0.534501
	0.450000	-0.324023
	0.455000	-0.208917
	0.460000	-0.429262
	0.465000	-0.534501
	0.470000	-0.320734
	0.475000	-0.208917
	0.480000	-0.425973
	0.485000	-0.534501
	0.490000	-0.324023
	0.495000	-0.215495
	0.500000	-0.422684
	0.505000	-0.541078
	0.510000	-0.320734
	0.515000	-0.208917
	0.520000	-0.422684
	0.525000	-0.534501
	0.530000	-0.320734
	0.535000	-0.205628
	0.540000	-0.422684
	0.545000	-0.531212
	0.550000	-0.314156
	0.555000	-0.205628
	0.560000	-0.419395
	0.565000	-0.531212
	0.570000	-0.314156
	0.575000	-0.199051
	0.580000	-0.419395
	0.585000	-0.527923
	0.590000	-0.310868
	0.595000	-0.202340
	0.600000	-0.422684
	0.605000	-0.531212
	0.610000	-0.314156
	0.615000	-0.202340
	0.620000	-0.422684
	0.625000	-0.531212
	0.630000	-0.317445
	0.635000	-0.205628
	0.640000	-0.422684
	0.645000	-0.527923
	0.650000	-0.317445
	0.655000	-0.202340
	0.660000	-0.422684
	0.665000	-0.531212
	0.670000	-0.314156
	0.675000	-0.205628
	0.680000	-0.419395
	0.685000	-0.527923
	0.690000	-0.314156
	0.695000	-0.205628
	0.700000	-0.416107
	0.705000	-0.527923
	0.710000	-0.314156
	0.715000	-0.205628
	0.720000	-0.419395
	0.725000	-0.527923
	0.730000	-0.310868
	0.735000	-0.199051
	0.740000	-0.416107
	0.745000	-0.521346
	0.750000	-0.307579
	0.755000	-0.202340
	0.760000	-0.419395
	0.765000	-0.527923
	0.770000	-0.310868
	0.775000	-0.192474
	0.780000	-0.419395
	0.785000	-0.521346
	0.790000	-0.310868
	0.795000	-0.199051
	0.800000	-0.416107
	0.805000	-0.524635
	0.810000	-0.310868
	0.815000	-0.199051
	0.820000	-0.416107
	0.825000	-0.524635
	0.830000	-0.307579
	0.835000	-0.199051
	0.840000	-0.412818
	0.845000	-0.521346
	0.850000	-0.310868
	0.855000	-0.199051
	0.860000	-0.416107
	0.865000	-0.524635
	0.870000	-0.307579
	0.875000	-0.199051
	0.880000	-0.412818
	0.885000	-0.518057
	0.890000	-0.307579
	0.895000	-0.195762
	0.900000	-0.412818
	0.905000	-0.514768
	0.910000	-0.307579
	0.915000	-0.195762
	0.920000	-0.409529
	0.925000	-0.514768
	0.930000	-0.304290
	0.935000	-0.195762
	0.940000	-0.406241
	0.945000	-0.511480
	0.950000	-0.304290
	0.955000	-0.195762
	0.960000	-0.402952
	0.965000	-0.508191
	0.970000	-0.304290
	0.975000	-0.199051
	0.980000	-0.402952
	0.985000	-0.508191
	0.990000	-0.307579
	0.995000	-0.199051
	1.000000	-0.376642
	1.005000	-0.481881
	1.010000	-0.307579
	1.015000	-0.212206
	1.020000	-0.383220
	1.025000	-0.485170
	1.030000	-0.317445
	1.035000	-0.238516
	1.040000	-0.360198
	1.045000	-0.412818
	1.050000	-0.268114
	1.055000	-0.205628
	1.060000	-0.340466
	1.065000	-0.399663
	1.070000	-0.258248
	1.075000	-0.202340
	1.080000	-0.337177
	1.085000	-0.393086
	1.090000	-0.254959
	1.095000	-0.195762
	1.100000	-0.330600
	1.105000	-0.386508
	1.110000	-0.248382
	1.115000	-0.195762
	1.120000	-0.327311
	1.125000	-0.383220
	1.130000	-0.238516
	1.135000	-0.185896
	1.140000	-0.327311
	1.145000	-0.383220
	1.150000	-0.238516
	1.155000	-0.189185
	1.160000	-0.327311
	1.165000	-0.379931
	1.170000	-0.238516
	1.175000	-0.185896
	1.180000	-0.330600
	1.185000	-0.383220
	1.190000	-0.238516
	1.195000	-0.189185
	1.200000	-0.330600
	1.205000	-0.379931
	1.210000	-0.238516
	1.215000	-0.192474
	1.220000	-0.327311
	1.225000	-0.383220
	1.230000	-0.238516
	1.235000	-0.185896
	1.240000	-0.324023
	1.245000	-0.389797
	1.250000	-0.248382
	1.255000	-0.182607
	1.260000	-0.330600
	1.265000	-0.402952
	1.270000	-0.254959
	1.275000	-0.185896
	1.280000	-0.340466
	1.285000	-0.402952
	1.290000	-0.254959
	1.295000	-0.192474
	1.300000	-0.337177
	1.305000	-0.402952
	1.310000	-0.258248
	1.315000	-0.189185
	1.320000	-0.340466
	1.325000	-0.402952
	1.330000	-0.254959
	1.335000	-0.192474
	1.340000	-0.333889
	1.345000	-0.399663
	1.350000	-0.254959
	1.355000	-0.189185
	1.360000	-0.333889
	1.365000	-0.399663
	1.370000	-0.251671
	1.375000	-0.185896
	1.380000	-0.333889
	1.385000	-0.399663
	1.390000	-0.245093
	1.395000	-0.166164
	1.400000	-0.324023
	1.405000	-0.396374
	1.410000	-0.245093
	1.415000	-0.182607
	1.420000	-0.333889
	1.425000	-0.396374
	1.430000	-0.248382
	1.435000	-0.169453
	1.440000	-0.350332
	1.445000	-0.432550
	1.450000	-0.294424
	1.455000	-0.238516
	1.460000	-0.370065
	1.465000	-0.409529
	1.470000	-0.261537
	1.475000	-0.205628
	1.480000	-0.340466
	1.485000	-0.383220
	1.490000	-0.235227
	1.495000	-0.182607
	1.500000	-0.324023
	1.505000	-0.366776
	1.510000	-0.228650
	1.515000	-0.179319
	1.520000	-0.317445
	1.525000	-0.363487
	1.530000	-0.222072
	1.535000	-0.172741
	1.540000	-0.310868
	1.545000	-0.356910
	1.550000	-0.215495
	1.555000	-0.166164
	1.560000	-0.307579
	1.565000	-0.353621
	1.570000	-0.215495
	1.575000	-0.162875
	1.580000	-0.304290
	1.585000	-0.353621
	1.590000	-0.212206
	1.595000	-0.159586
	1.600000	-0.301001
	1.605000	-0.347044
	1.610000	-0.208917
	1.615000	-0.159586
	1.620000	-0.294424
	1.625000	-0.340466
	1.630000	-0.205628
	1.635000	-0.156298
	1.640000	-0.294424
	1.645000	-0.347044
	1.650000	-0.208917
	1.655000	-0.159586
	1.660000	-0.297713
	1.665000	-0.340466
	1.670000	-0.205628
	1.675000	-0.159586
	1.680000	-0.294424
	1.685000	-0.340466
	1.690000	-0.205628
	1.695000	-0.149720
	1.700000	-0.294424
	1.705000	-0.337177
	1.710000	-0.199051
	1.715000	-0.146431
	1.720000	-0.287847
	1.725000	-0.330600
	1.730000	-0.189185
	1.735000	-0.139854
	1.740000	-0.284558
	1.745000	-0.327311
	1.750000	-0.189185
	1.755000	-0.133277
	1.760000	-0.287847
	1.765000	-0.327311
	1.770000	-0.185896
	1.775000	-0.136565
	1.780000	-0.284558
	1.785000	-0.330600
	1.790000	-0.153009
	1.795000	-0.080657
	1.800000	-0.324023
	1.805000	-0.429262
	1.810000	-0.215495
	1.815000	-0.126699
	1.820000	-0.356910
	1.825000	-0.448994
	1.830000	-0.228650
	1.835000	-0.139854
	1.840000	-0.363487
	1.845000	-0.452283
	1.850000	-0.231938
	1.855000	-0.133277
	1.860000	-0.363487
	1.865000	-0.452283
	1.870000	-0.225361
	1.875000	-0.129988
	1.880000	-0.356910
	1.885000	-0.448994
	1.890000	-0.218783
	1.895000	-0.129988
	1.900000	-0.350332
	1.905000	-0.442417
	1.910000	-0.212206
	1.915000	-0.129988
	1.920000	-0.353621
	1.925000	-0.442417
	1.930000	-0.215495
	1.935000	-0.129988
	1.940000	-0.360198
	1.945000	-0.452283
	1.950000	-0.222072
	1.955000	-0.136565
	1.960000	-0.363487
	1.965000	-0.455571
	1.970000	-0.235227
	1.975000	-0.143143
	1.980000	-0.376642
	1.985000	-0.462149
	1.990000	-0.241804
	1.995000	-0.153009
	2.000000	-0.379931
	2.005000	-0.472015
	2.010000	-0.248382
	2.015000	-0.156298
	2.020000	-0.383220
	2.025000	-0.475304
	2.030000	-0.245093
	2.035000	-0.146431
	2.040000	-0.376642
	2.045000	-0.462149
	2.050000	-0.235227
	2.055000	-0.146431
	2.060000	-0.370065
	2.065000	-0.455571
	2.070000	-0.222072
	2.075000	-0.136565
	2.080000	-0.356910
	2.085000	-0.445705
	2.090000	-0.215495
	2.095000	-0.126699
	2.100000	-0.356910
	2.105000	-0.442417
	2.110000	-0.218783
	2.115000	-0.123410
	2.120000	-0.356910
	2.125000	-0.445705
	2.130000	-0.215495
	2.135000	-0.133277
	2.140000	-0.360198
	2.145000	-0.448994
	2.150000	-0.225361
	2.155000	-0.139854
	2.160000	-0.370065
	2.165000	-0.455571
	2.170000	-0.231938
	2.175000	-0.143143
	2.180000	-0.373353
	2.185000	-0.458860
	2.190000	-0.228650
	2.195000	-0.143143
	2.200000	-0.373353
	2.205000	-0.462149
	2.210000	-0.231938
	2.215000	-0.146431
	2.220000	-0.373353
	2.225000	-0.455571
	2.230000	-0.231938
	2.235000	-0.139854
	2.240000	-0.366776
	2.245000	-0.455571
	2.250000	-0.228650
	2.255000	-0.136565
	2.260000	-0.363487
	2.265000	-0.452283
	2.270000	-0.228650
	2.275000	-0.136565
	2.280000	-0.366776
	2.285000	-0.452283
	2.290000	-0.218783
	2.295000	-0.136565
	2.300000	-0.363487
	2.305000	-0.448994
	2.310000	-0.225361
	2.315000	-0.133277
	2.320000	-0.366776
	2.325000	-0.452283
	2.330000	-0.222072
	2.335000	-0.133277
	2.340000	-0.370065
	2.345000	-0.448994
	2.350000	-0.222072
	2.355000	-0.139854
	2.360000	-0.366776
	2.365000	-0.448994
	2.370000	-0.218783
	2.375000	-0.133277
	2.380000	-0.363487
	2.385000	-0.452283
	2.390000	-0.218783
	2.395000	-0.129988
	2.400000	-0.363487
	2.405000	-0.448994
	2.410000	-0.218783
	2.415000	-0.133277
	2.420000	-0.360198
	2.425000	-0.448994
	2.430000	-0.215495
	2.435000	-0.133277
	2.440000	-0.356910
	2.445000	-0.445705
	2.450000	-0.218783
	2.455000	-0.126699
	2.460000	-0.360198
	2.465000	-0.445705
	2.470000	-0.222072
	2.475000	-0.129988
	2.480000	-0.356910
	2.485000	-0.439128
	2.490000	-0.215495
	2.495000	-0.129988
	2.500000	-0.350332
	2.505000	-0.442417
	2.510000	-0.218783
	2.515000	-0.129988
	2.520000	-0.356910
	2.525000	-0.435839
	2.530000	-0.218783
	2.535000	-0.133277
	2.540000	-0.350332
	2.545000	-0.435839
	2.550000	-0.218783
	2.555000	-0.129988
	2.560000	-0.343755
	2.565000	-0.429262
	2.570000	-0.218783
	2.575000	-0.133277
	2.580000	-0.340466
	2.585000	-0.425973
	2.590000	-0.225361
	2.595000	-0.136565
	2.600000	-0.324023
	2.605000	-0.402952
	2.610000	-0.271403
	2.615000	-0.218783
	2.620000	-0.360198
	2.625000	-0.383220
	2.630000	-0.235227
	2.635000	-0.185896
	2.640000	-0.324023
	2.645000	-0.353621
	2.650000	-0.202340
	2.655000	-0.162875
	2.660000	-0.294424
	2.665000	-0.333889
	2.670000	-0.189185
	2.675000	-0.143143
	2.680000	-0.284558
	2.685000	-0.324023
	2.690000	-0.179319
	2.695000	-0.136565
	2.700000	-0.277980
	2.705000	-0.320734
	2.710000	-0.172741
	2.715000	-0.133277
	2.720000	-0.274692
	2.725000	-0.317445
	2.730000	-0.172741
	2.735000	-0.133277
	2.740000	-0.277980
	2.745000	-0.310868
	2.750000	-0.172741
	2.755000	-0.126699
	2.760000	-0.268114
	2.765000	-0.310868
	2.770000	-0.166164
	2.775000	-0.126699
	2.780000	-0.264826
	2.785000	-0.301001
	2.790000	-0.156298
	2.795000	-0.120122
	2.800000	-0.264826
	2.805000	-0.297713
	2.810000	-0.153009
	2.815000	-0.123410
	2.820000	-0.258248
	2.825000	-0.294424
	2.830000	-0.156298
	2.835000	-0.116833
	2.840000	-0.254959
	2.845000	-0.291135
	2.850000	-0.146431
	2.855000	-0.113544
	2.860000	-0.264826
	2.865000	-0.297713
	2.870000	-0.097101
	2.875000	-0.034615
	2.880000	-0.274692
	2.885000	-0.373353
	2.890000	-0.159586
	2.895000	-0.087234
	2.900000	-0.317445
	2.905000	-0.402952
	2.910000	-0.185896
	2.915000	-0.100389
	2.920000	-0.327311
	2.925000	-0.409529
	2.930000	-0.189185
	2.935000	-0.106967
	2.940000	-0.333889
	2.945000	-0.412818
	2.950000	-0.189185
	2.955000	-0.113544
	2.960000	-0.330600
	2.965000	-0.409529
	2.970000	-0.192474
	2.975000	-0.100389
	2.980000	-0.320734
	2.985000	-0.406241
	2.990000	-0.185896
	2.995000	-0.103678
	3.000000	-0.327311
	3.005000	-0.402952
	3.010000	-0.179319
	3.015000	-0.100389
	3.020000	-0.324023
	3.025000	-0.409529
	3.030000	-0.176030
	3.035000	-0.097101
	3.040000	-0.320734
	3.045000	-0.402952
	3.050000	-0.176030
	3.055000	-0.097101
	3.060000	-0.327311
	3.065000	-0.399663
	3.070000	-0.172741
	3.075000	-0.093812
	3.080000	-0.327311
	3.085000	-0.409529
	3.090000	-0.179319
	3.095000	-0.106967
	3.100000	-0.330600
	3.105000	-0.412818
	3.110000	-0.185896
	3.115000	-0.110256
	3.120000	-0.340466
	3.125000	-0.416107
	3.130000	-0.192474
	3.135000	-0.113544
	3.140000	-0.343755
	3.145000	-0.422684
	3.150000	-0.189185
	3.155000	-0.113544
	3.160000	-0.340466
	3.165000	-0.416107
	3.170000	-0.185896
	3.175000	-0.106967
	3.180000	-0.330600
	3.185000	-0.409529
	3.190000	-0.179319
	3.195000	-0.097101
	3.200000	-0.324023
	3.205000	-0.399663
	3.210000	-0.169453
	3.215000	-0.090523
	3.220000	-0.324023
	3.225000	-0.396374
	3.230000	-0.162875
	3.235000	-0.093812
	3.240000	-0.314156
	3.245000	-0.396374
	3.250000	-0.162875
	3.255000	-0.087234
	3.260000	-0.324023
	3.265000	-0.399663
	3.270000	-0.169453
	3.275000	-0.093812
	3.280000	-0.324023
	3.285000	-0.402952
	3.290000	-0.179319
	3.295000	-0.106967
	3.300000	-0.337177
	3.305000	-0.416107
	3.310000	-0.185896
	3.315000	-0.116833
	3.320000	-0.343755
	3.325000	-0.419395
	3.330000	-0.195762
	3.335000	-0.113544
	3.340000	-0.343755
	3.345000	-0.422684
	3.350000	-0.192474
	3.355000	-0.113544
	3.360000	-0.340466
	3.365000	-0.416107
	3.370000	-0.185896
	3.375000	-0.106967
	3.380000	-0.333889
	3.385000	-0.409529
	3.390000	-0.176030
	3.395000	-0.097101
	3.400000	-0.330600
	3.405000	-0.399663
	3.410000	-0.172741
	3.415000	-0.093812
	3.420000	-0.324023
	3.425000	-0.396374
	3.430000	-0.166164
	3.435000	-0.090523
	3.440000	-0.320734
	3.445000	-0.389797
	3.450000	-0.169453
	3.455000	-0.097101
	3.460000	-0.320734
	3.465000	-0.396374
	3.470000	-0.172741
	3.475000	-0.097101
	3.480000	-0.330600
	3.485000	-0.402952
	3.490000	-0.169453
	3.495000	-0.103678
	3.500000	-0.327311
	3.505000	-0.402952
	3.510000	-0.172741
	3.515000	-0.100389
	3.520000	-0.330600
	3.525000	-0.402952
	3.530000	-0.176030
	3.535000	-0.103678
	3.540000	-0.330600
	3.545000	-0.402952
	3.550000	-0.182607
	3.555000	-0.106967
	3.560000	-0.330600
	3.565000	-0.406241
	3.570000	-0.176030
	3.575000	-0.100389
	3.580000	-0.327311
	3.585000	-0.402952
	3.590000	-0.172741
	3.595000	-0.097101
	3.600000	-0.327311
	3.605000	-0.396374
	3.610000	-0.176030
	3.615000	-0.097101
	3.620000	-0.327311
	3.625000	-0.399663
	3.630000	-0.169453
	3.635000	-0.097101
	3.640000	-0.320734
	3.645000	-0.396374
	3.650000	-0.172741
	3.655000	-0.093812
	3.660000	-0.324023
	3.665000	-0.396374
	3.670000	-0.172741
	3.675000	-0.097101
	3.680000	-0.330600
	3.685000	-0.396374
	3.690000	-0.172741
	3.695000	-0.100389
	3.700000	-0.327311
	3.705000	-0.402952
	3.710000	-0.169453
	3.715000	-0.100389
	3.720000	-0.330600
	3.725000	-0.396374
	3.730000	-0.169453
	3.735000	-0.093812
	3.740000	-0.324023
	3.745000	-0.396374
	3.750000	-0.166164
	3.755000	-0.097101
	3.760000	-0.320734
	3.765000	-0.396374
	3.770000	-0.169453
	3.775000	-0.090523
	3.780000	-0.320734
	3.785000	-0.396374
	3.790000	-0.169453
	3.795000	-0.093812
	3.800000	-0.320734
	3.805000	-0.389797
	3.810000	-0.169453
	3.815000	-0.093812
	3.820000	-0.320734
	3.825000	-0.393086
	3.830000	-0.162875
	3.835000	-0.093812
	3.840000	-0.317445
	3.845000	-0.396374
	3.850000	-0.162875
	3.855000	-0.093812
	3.860000	-0.314156
	3.865000	-0.383220
	3.870000	-0.162875
	3.875000	-0.093812
	3.880000	-0.317445
	3.885000	-0.389797
	3.890000	-0.166164
	3.895000	-0.090523
	3.900000	-0.314156
	3.905000	-0.386508
	3.910000	-0.162875
	3.915000	-0.090523
	3.920000	-0.317445
	3.925000	-0.389797
	3.930000	-0.166164
	3.935000	-0.090523
	3.940000	-0.314156
	3.945000	-0.389797
	3.950000	-0.159586
	3.955000	-0.087234
	3.960000	-0.317445
	3.965000	-0.386508
	3.970000	-0.162875
	3.975000	-0.090523
	3.980000	-0.314156
	3.985000	-0.389797
	3.990000	-0.159586
	3.995000	-0.090523
	4.000000	-0.314156
	4.005000	-0.386508
	4.010000	-0.159586
	4.015000	-0.087234
	4.020000	-0.310868
	4.025000	-0.383220
	4.030000	-0.159586
	4.035000	-0.083946
	4.040000	-0.307579
	4.045000	-0.379931
	4.050000	-0.159586
	4.055000	-0.083946
	4.060000	-0.304290
	4.065000	-0.370065
	4.070000	-0.156298
	4.075000	-0.083946
	4.080000	-0.301001
	4.085000	-0.376642
	4.090000	-0.159586
	4.095000	-0.080657
	4.100000	-0.294424
	4.105000	-0.363487
	4.110000	-0.156298
	4.115000	-0.080657
	4.120000	-0.301001
	4.125000	-0.370065
	4.130000	-0.153009
	4.135000	-0.083946
	4.140000	-0.301001
	4.145000	-0.373353
	4.150000	-0.156298
	4.155000	-0.083946
	4.160000	-0.297713
	4.165000	-0.373353
	4.170000	-0.149720
	4.175000	-0.080657
	4.180000	-0.304290
	4.185000	-0.373353
	4.190000	-0.156298
	4.195000	-0.083946
	4.200000	-0.304290
	4.205000	-0.376642
	4.210000	-0.153009
	4.215000	-0.083946
	4.220000	-0.304290
	4.225000	-0.373353
	4.230000	-0.149720
	4.235000	-0.083946
	4.240000	-0.304290
	4.245000	-0.373353
	4.250000	-0.149720
	4.255000	-0.077368
	4.260000	-0.304290
	4.265000	-0.373353
	4.270000	-0.149720
	4.275000	-0.083946
	4.280000	-0.287847
	4.285000	-0.366776
	4.290000	-0.228650
	4.295000	-0.195762
	4.300000	-0.327311
	4.305000	-0.340466
	4.310000	-0.189185
	4.315000	-0.146431
	4.320000	-0.287847
	4.325000	-0.297713
	4.330000	-0.146431
	4.335000	-0.113544
	4.340000	-0.251671
	4.345000	-0.274692
	4.350000	-0.129988
	4.355000	-0.093812
	4.360000	-0.238516
	4.365000	-0.268114
	4.370000	-0.123410
	4.375000	-0.093812
	4.380000	-0.238516
	4.385000	-0.264826
	4.390000	-0.120122
	4.395000	-0.083946
	4.400000	-0.235227
	4.405000	-0.274692
	4.410000	-0.064213
	4.415000	-0.018171
	4.420000	-0.258248
	4.425000	-0.340466
	4.430000	-0.116833
	4.435000	-0.054347
	4.440000	-0.291135
	4.445000	-0.363487
	4.450000	-0.136565
	4.455000	-0.067502
	4.460000	-0.301001
	4.465000	-0.366776
	4.470000	-0.129988
	4.475000	-0.070791
	4.480000	-0.297713
	4.485000	-0.360198
	4.490000	-0.129988
	4.495000	-0.067502
	4.500000	-0.297713
	4.505000	-0.363487
	4.510000	-0.129988
	4.515000	-0.060925
	4.520000	-0.294424
	4.525000	-0.356910
	4.530000	-0.120122
	4.535000	-0.054347
	4.540000	-0.294424
	4.545000	-0.356910
	4.550000	-0.120122
	4.555000	-0.057636
	4.560000	-0.291135
	4.565000	-0.356910
	4.570000	-0.123410
	4.575000	-0.057636
	4.580000	-0.294424
	4.585000	-0.363487
	4.590000	-0.129988
	4.595000	-0.067502
	4.600000	-0.301001
	4.605000	-0.366776
	4.610000	-0.136565
	4.615000	-0.074080
	4.620000	-0.307579
	4.625000	-0.370065
	4.630000	-0.133277
	4.635000	-0.070791
	4.640000	-0.304290
	4.645000	-0.366776
	4.650000	-0.133277
	4.655000	-0.067502
	4.660000	-0.301001
	4.665000	-0.356910
	4.670000	-0.120122
	4.675000	-0.054347
	4.680000	-0.284558
	4.685000	-0.347044
	4.690000	-0.113544
	4.695000	-0.051059
	4.700000	-0.277980
	4.705000	-0.340466
	4.710000	-0.106967
	4.715000	-0.044481
	4.720000	-0.274692
	4.725000	-0.340466
	4.730000	-0.100389
	4.735000	-0.041192
	4.740000	-0.281269
	4.745000	-0.337177
	4.750000	-0.106967
	4.755000	-0.047770
	4.760000	-0.277980
	4.765000	-0.343755
	4.770000	-0.113544
	4.775000	-0.051059
	4.780000	-0.291135
	4.785000	-0.353621
	4.790000	-0.120122
	4.795000	-0.057636
	4.800000	-0.294424
	4.805000	-0.356910
	4.810000	-0.123410
	4.815000	-0.064213
	4.820000	-0.294424
	4.825000	-0.350332
	4.830000	-0.120122
	4.835000	-0.057636
	4.840000	-0.284558
	4.845000	-0.340466
	4.850000	-0.106967
	4.855000	-0.044481
	4.860000	-0.277980
	4.865000	-0.337177
	4.870000	-0.103678
	4.875000	-0.041192
	4.880000	-0.271403
	4.885000	-0.333889
	4.890000	-0.097101
	4.895000	-0.028037
	4.900000	-0.261537
	4.905000	-0.324023
	4.910000	-0.093812
	4.915000	-0.028037
	4.920000	-0.258248
	4.925000	-0.320734
