2024/7/21 	 8:21:15 
 This file comes from Vt only measurement 	 1.000000E-1 
 Voltage Sensitivity 	 0.000000E+0 
 Sampling rate 	 200 
 Number of samples per channel 	 -1 
 No filter from Labview 	 	 	 
 	 
 ***End_of_Header*** 
 	 Time 	  Voltage 	 Filtered Voltage 	 
	0.000000	-0.606853
	0.005000	-0.445705
	0.010000	-0.442417
	0.015000	-0.600275
	0.020000	-0.600275
	0.025000	-0.448994
	0.030000	-0.445705
	0.035000	-0.600275
	0.040000	-0.603564
	0.045000	-0.448994
	0.050000	-0.445705
	0.055000	-0.600275
	0.060000	-0.606853
	0.065000	-0.448994
	0.070000	-0.442417
	0.075000	-0.596987
	0.080000	-0.603564
	0.085000	-0.448994
	0.090000	-0.442417
	0.095000	-0.600275
	0.100000	-0.603564
	0.105000	-0.448994
	0.110000	-0.442417
	0.115000	-0.600275
	0.120000	-0.596987
	0.125000	-0.442417
	0.130000	-0.439128
	0.135000	-0.593698
	0.140000	-0.600275
	0.145000	-0.445705
	0.150000	-0.442417
	0.155000	-0.600275
	0.160000	-0.600275
	0.165000	-0.445705
	0.170000	-0.442417
	0.175000	-0.596987
	0.180000	-0.596987
	0.185000	-0.442417
	0.190000	-0.442417
	0.195000	-0.596987
	0.200000	-0.600275
	0.205000	-0.445705
	0.210000	-0.435839
	0.215000	-0.596987
	0.220000	-0.600275
	0.225000	-0.448994
	0.230000	-0.439128
	0.235000	-0.596987
	0.240000	-0.603564
	0.245000	-0.445705
	0.250000	-0.442417
	0.255000	-0.596987
	0.260000	-0.596987
	0.265000	-0.439128
	0.270000	-0.439128
	0.275000	-0.596987
	0.280000	-0.600275
	0.285000	-0.442417
	0.290000	-0.439128
	0.295000	-0.593698
	0.300000	-0.600275
	0.305000	-0.442417
	0.310000	-0.435839
	0.315000	-0.593698
	0.320000	-0.600275
	0.325000	-0.435839
	0.330000	-0.439128
	0.335000	-0.600275
	0.340000	-0.596987
	0.345000	-0.442417
	0.350000	-0.435839
	0.355000	-0.596987
	0.360000	-0.596987
	0.365000	-0.442417
	0.370000	-0.439128
	0.375000	-0.596987
	0.380000	-0.593698
	0.385000	-0.439128
	0.390000	-0.439128
	0.395000	-0.593698
	0.400000	-0.596987
	0.405000	-0.439128
	0.410000	-0.439128
	0.415000	-0.593698
	0.420000	-0.596987
	0.425000	-0.439128
	0.430000	-0.439128
	0.435000	-0.596987
	0.440000	-0.593698
	0.445000	-0.439128
	0.450000	-0.432550
	0.455000	-0.590409
	0.460000	-0.593698
	0.465000	-0.442417
	0.470000	-0.435839
	0.475000	-0.593698
	0.480000	-0.593698
	0.485000	-0.442417
	0.490000	-0.439128
	0.495000	-0.593698
	0.500000	-0.593698
	0.505000	-0.435839
	0.510000	-0.435839
	0.515000	-0.593698
	0.520000	-0.593698
	0.525000	-0.435839
	0.530000	-0.439128
	0.535000	-0.590409
	0.540000	-0.593698
	0.545000	-0.432550
	0.550000	-0.435839
	0.555000	-0.596987
	0.560000	-0.590409
	0.565000	-0.439128
	0.570000	-0.435839
	0.575000	-0.590409
	0.580000	-0.593698
	0.585000	-0.435839
	0.590000	-0.439128
	0.595000	-0.590409
	0.600000	-0.590409
	0.605000	-0.432550
	0.610000	-0.432550
	0.615000	-0.593698
	0.620000	-0.590409
	0.625000	-0.435839
	0.630000	-0.432550
	0.635000	-0.590409
	0.640000	-0.593698
	0.645000	-0.435839
	0.650000	-0.435839
	0.655000	-0.593698
	0.660000	-0.593698
	0.665000	-0.435839
	0.670000	-0.432550
	0.675000	-0.590409
	0.680000	-0.590409
	0.685000	-0.432550
	0.690000	-0.432550
	0.695000	-0.590409
	0.700000	-0.587120
	0.705000	-0.439128
	0.710000	-0.435839
	0.715000	-0.590409
	0.720000	-0.593698
	0.725000	-0.432550
	0.730000	-0.435839
	0.735000	-0.590409
	0.740000	-0.593698
	0.745000	-0.435839
	0.750000	-0.432550
	0.755000	-0.587120
	0.760000	-0.590409
	0.765000	-0.432550
	0.770000	-0.432550
	0.775000	-0.587120
	0.780000	-0.590409
	0.785000	-0.432550
	0.790000	-0.432550
	0.795000	-0.590409
	0.800000	-0.587120
	0.805000	-0.432550
	0.810000	-0.435839
	0.815000	-0.593698
	0.820000	-0.587120
	0.825000	-0.435839
	0.830000	-0.429262
	0.835000	-0.590409
	0.840000	-0.590409
	0.845000	-0.429262
	0.850000	-0.432550
	0.855000	-0.590409
	0.860000	-0.587120
	0.865000	-0.432550
	0.870000	-0.432550
	0.875000	-0.590409
	0.880000	-0.587120
	0.885000	-0.429262
	0.890000	-0.429262
	0.895000	-0.587120
	0.900000	-0.590409
	0.905000	-0.432550
	0.910000	-0.429262
	0.915000	-0.590409
	0.920000	-0.590409
	0.925000	-0.429262
	0.930000	-0.429262
	0.935000	-0.587120
	0.940000	-0.587120
	0.945000	-0.429262
	0.950000	-0.432550
	0.955000	-0.590409
	0.960000	-0.587120
	0.965000	-0.429262
	0.970000	-0.432550
	0.975000	-0.590409
	0.980000	-0.587120
	0.985000	-0.432550
	0.990000	-0.432550
	0.995000	-0.590409
	1.000000	-0.590409
	1.005000	-0.432550
	1.010000	-0.432550
	1.015000	-0.593698
	1.020000	-0.590409
	1.025000	-0.432550
	1.030000	-0.432550
	1.035000	-0.590409
	1.040000	-0.590409
	1.045000	-0.432550
	1.050000	-0.432550
	1.055000	-0.587120
	1.060000	-0.590409
	1.065000	-0.432550
	1.070000	-0.432550
	1.075000	-0.590409
	1.080000	-0.590409
	1.085000	-0.432550
	1.090000	-0.432550
	1.095000	-0.590409
	1.100000	-0.590409
	1.105000	-0.435839
	1.110000	-0.432550
	1.115000	-0.590409
	1.120000	-0.587120
	1.125000	-0.429262
	1.130000	-0.432550
	1.135000	-0.590409
	1.140000	-0.590409
	1.145000	-0.435839
	1.150000	-0.432550
	1.155000	-0.590409
	1.160000	-0.587120
	1.165000	-0.429262
	1.170000	-0.432550
	1.175000	-0.593698
	1.180000	-0.587120
	1.185000	-0.429262
	1.190000	-0.432550
	1.195000	-0.587120
	1.200000	-0.587120
	1.205000	-0.429262
	1.210000	-0.435839
	1.215000	-0.590409
	1.220000	-0.590409
	1.225000	-0.432550
	1.230000	-0.435839
	1.235000	-0.590409
	1.240000	-0.583832
	1.245000	-0.435839
	1.250000	-0.432550
	1.255000	-0.593698
	1.260000	-0.587120
	1.265000	-0.435839
	1.270000	-0.435839
	1.275000	-0.590409
	1.280000	-0.593698
	1.285000	-0.435839
	1.290000	-0.435839
	1.295000	-0.600275
	1.300000	-0.596987
	1.305000	-0.435839
	1.310000	-0.442417
	1.315000	-0.590409
	1.320000	-0.593698
	1.325000	-0.432550
	1.330000	-0.432550
	1.335000	-0.587120
	1.340000	-0.590409
	1.345000	-0.425973
	1.350000	-0.432550
	1.355000	-0.583832
	1.360000	-0.577254
	1.365000	-0.422684
	1.370000	-0.425973
	1.375000	-0.583832
	1.380000	-0.580543
	1.385000	-0.422684
	1.390000	-0.422684
	1.395000	-0.580543
	1.400000	-0.577254
	1.405000	-0.422684
	1.410000	-0.425973
	1.415000	-0.583832
	1.420000	-0.580543
	1.425000	-0.422684
	1.430000	-0.425973
	1.435000	-0.583832
	1.440000	-0.583832
	1.445000	-0.419395
	1.450000	-0.425973
	1.455000	-0.580543
	1.460000	-0.573965
	1.465000	-0.419395
	1.470000	-0.422684
	1.475000	-0.577254
	1.480000	-0.573965
	1.485000	-0.416107
	1.490000	-0.419395
	1.495000	-0.577254
	1.500000	-0.573965
	1.505000	-0.409529
	1.510000	-0.416107
	1.515000	-0.567388
	1.520000	-0.567388
	1.525000	-0.412818
	1.530000	-0.412818
	1.535000	-0.570677
	1.540000	-0.560811
	1.545000	-0.402952
	1.550000	-0.409529
	1.555000	-0.564099
	1.560000	-0.564099
	1.565000	-0.406241
	1.570000	-0.409529
	1.575000	-0.570677
	1.580000	-0.570677
	1.585000	-0.412818
	1.590000	-0.419395
	1.595000	-0.580543
	1.600000	-0.577254
	1.605000	-0.419395
	1.610000	-0.429262
	1.615000	-0.587120
	1.620000	-0.580543
	1.625000	-0.425973
	1.630000	-0.429262
	1.635000	-0.590409
	1.640000	-0.583832
	1.645000	-0.425973
	1.650000	-0.425973
	1.655000	-0.587120
	1.660000	-0.577254
	1.665000	-0.422684
	1.670000	-0.425973
	1.675000	-0.583832
	1.680000	-0.580543
	1.685000	-0.425973
	1.690000	-0.432550
	1.695000	-0.587120
	1.700000	-0.587120
	1.705000	-0.432550
	1.710000	-0.435839
	1.715000	-0.600275
	1.720000	-0.596987
	1.725000	-0.448994
	1.730000	-0.452283
	1.735000	-0.606853
	1.740000	-0.610141
	1.745000	-0.458860
	1.750000	-0.455571
	1.755000	-0.616719
	1.760000	-0.613430
	1.765000	-0.455571
	1.770000	-0.458860
	1.775000	-0.613430
	1.780000	-0.606853
	1.785000	-0.452283
	1.790000	-0.448994
	1.795000	-0.606853
	1.800000	-0.603564
	1.805000	-0.445705
	1.810000	-0.448994
	1.815000	-0.610141
	1.820000	-0.603564
	1.825000	-0.452283
	1.830000	-0.452283
	1.835000	-0.610141
	1.840000	-0.606853
	1.845000	-0.448994
	1.850000	-0.458860
	1.855000	-0.613430
	1.860000	-0.610141
	1.865000	-0.458860
	1.870000	-0.462149
	1.875000	-0.623296
	1.880000	-0.616719
	1.885000	-0.462149
	1.890000	-0.462149
	1.895000	-0.620008
	1.900000	-0.610141
	1.905000	-0.452283
	1.910000	-0.448994
	1.915000	-0.606853
	1.920000	-0.603564
	1.925000	-0.435839
	1.930000	-0.445705
	1.935000	-0.596987
	1.940000	-0.590409
	1.945000	-0.435839
	1.950000	-0.439128
	1.955000	-0.596987
	1.960000	-0.590409
	1.965000	-0.432550
	1.970000	-0.442417
	1.975000	-0.596987
	1.980000	-0.590409
	1.985000	-0.432550
	1.990000	-0.442417
	1.995000	-0.596987
	2.000000	-0.590409
	2.005000	-0.432550
	2.010000	-0.439128
	2.015000	-0.593698
	2.020000	-0.590409
	2.025000	-0.435839
	2.030000	-0.442417
	2.035000	-0.593698
	2.040000	-0.587120
	2.045000	-0.435839
	2.050000	-0.435839
	2.055000	-0.593698
	2.060000	-0.587120
	2.065000	-0.432550
	2.070000	-0.435839
	2.075000	-0.593698
	2.080000	-0.587120
	2.085000	-0.432550
	2.090000	-0.439128
	2.095000	-0.593698
	2.100000	-0.587120
	2.105000	-0.432550
	2.110000	-0.435839
	2.115000	-0.590409
	2.120000	-0.587120
	2.125000	-0.435839
	2.130000	-0.435839
	2.135000	-0.590409
	2.140000	-0.587120
	2.145000	-0.432550
	2.150000	-0.435839
	2.155000	-0.590409
	2.160000	-0.580543
	2.165000	-0.429262
	2.170000	-0.432550
	2.175000	-0.590409
	2.180000	-0.587120
	2.185000	-0.429262
	2.190000	-0.432550
	2.195000	-0.590409
	2.200000	-0.587120
	2.205000	-0.432550
	2.210000	-0.435839
	2.215000	-0.593698
	2.220000	-0.583832
	2.225000	-0.429262
	2.230000	-0.435839
	2.235000	-0.593698
	2.240000	-0.590409
	2.245000	-0.432550
	2.250000	-0.435839
	2.255000	-0.593698
	2.260000	-0.590409
	2.265000	-0.429262
	2.270000	-0.432550
	2.275000	-0.596987
	2.280000	-0.587120
	2.285000	-0.425973
	2.290000	-0.435839
	2.295000	-0.590409
	2.300000	-0.587120
	2.305000	-0.432550
	2.310000	-0.435839
	2.315000	-0.587120
	2.320000	-0.580543
	2.325000	-0.422684
	2.330000	-0.435839
	2.335000	-0.590409
	2.340000	-0.580543
	2.345000	-0.429262
	2.350000	-0.432550
	2.355000	-0.587120
	2.360000	-0.583832
	2.365000	-0.429262
	2.370000	-0.432550
	2.375000	-0.587120
	2.380000	-0.580543
	2.385000	-0.429262
	2.390000	-0.432550
	2.395000	-0.587120
	2.400000	-0.580543
	2.405000	-0.422684
	2.410000	-0.432550
	2.415000	-0.587120
	2.420000	-0.580543
	2.425000	-0.429262
	2.430000	-0.432550
	2.435000	-0.587120
	2.440000	-0.580543
	2.445000	-0.429262
	2.450000	-0.429262
	2.455000	-0.590409
	2.460000	-0.580543
	2.465000	-0.429262
	2.470000	-0.429262
	2.475000	-0.587120
	2.480000	-0.580543
	2.485000	-0.422684
	2.490000	-0.429262
	2.495000	-0.587120
	2.500000	-0.583832
	2.505000	-0.422684
	2.510000	-0.429262
	2.515000	-0.590409
	2.520000	-0.583832
	2.525000	-0.425973
	2.530000	-0.432550
	2.535000	-0.587120
	2.540000	-0.583832
	2.545000	-0.425973
	2.550000	-0.432550
	2.555000	-0.590409
	2.560000	-0.577254
	2.565000	-0.425973
	2.570000	-0.432550
	2.575000	-0.590409
	2.580000	-0.583832
	2.585000	-0.432550
	2.590000	-0.439128
	2.595000	-0.590409
	2.600000	-0.583832
	2.605000	-0.429262
	2.610000	-0.439128
	2.615000	-0.593698
	2.620000	-0.583832
	2.625000	-0.425973
	2.630000	-0.429262
	2.635000	-0.587120
	2.640000	-0.573965
	2.645000	-0.422684
	2.650000	-0.425973
	2.655000	-0.580543
	2.660000	-0.577254
	2.665000	-0.416107
	2.670000	-0.429262
	2.675000	-0.583832
	2.680000	-0.573965
	2.685000	-0.416107
	2.690000	-0.425973
	2.695000	-0.583832
	2.700000	-0.573965
	2.705000	-0.416107
	2.710000	-0.425973
	2.715000	-0.580543
	2.720000	-0.570677
	2.725000	-0.419395
	2.730000	-0.429262
	2.735000	-0.580543
	2.740000	-0.573965
	2.745000	-0.412818
	2.750000	-0.422684
	2.755000	-0.580543
	2.760000	-0.570677
	2.765000	-0.412818
	2.770000	-0.416107
	2.775000	-0.580543
	2.780000	-0.570677
	2.785000	-0.412818
	2.790000	-0.422684
	2.795000	-0.583832
	2.800000	-0.567388
	2.805000	-0.419395
	2.810000	-0.429262
	2.815000	-0.583832
	2.820000	-0.577254
	2.825000	-0.419395
	2.830000	-0.425973
	2.835000	-0.590409
	2.840000	-0.580543
	2.845000	-0.422684
	2.850000	-0.432550
	2.855000	-0.587120
	2.860000	-0.580543
	2.865000	-0.419395
	2.870000	-0.425973
	2.875000	-0.587120
	2.880000	-0.570677
	2.885000	-0.409529
	2.890000	-0.422684
	2.895000	-0.577254
	2.900000	-0.570677
	2.905000	-0.409529
	2.910000	-0.422684
	2.915000	-0.580543
	2.920000	-0.567388
	2.925000	-0.416107
	2.930000	-0.422684
	2.935000	-0.583832
	2.940000	-0.573965
	2.945000	-0.416107
	2.950000	-0.429262
	2.955000	-0.587120
	2.960000	-0.570677
	2.965000	-0.419395
	2.970000	-0.425973
	2.975000	-0.583832
	2.980000	-0.573965
	2.985000	-0.419395
	2.990000	-0.422684
	2.995000	-0.580543
	3.000000	-0.570677
	3.005000	-0.416107
	3.010000	-0.422684
	3.015000	-0.580543
	3.020000	-0.577254
	3.025000	-0.419395
	3.030000	-0.422684
	3.035000	-0.580543
	3.040000	-0.573965
	3.045000	-0.425973
	3.050000	-0.439128
	3.055000	-0.590409
	3.060000	-0.590409
	3.065000	-0.439128
	3.070000	-0.448994
	3.075000	-0.606853
	3.080000	-0.603564
	3.085000	-0.448994
	3.090000	-0.462149
	3.095000	-0.620008
	3.100000	-0.616719
	3.105000	-0.462149
	3.110000	-0.468726
	3.115000	-0.626585
	3.120000	-0.613430
	3.125000	-0.455571
	3.130000	-0.462149
	3.135000	-0.613430
	3.140000	-0.600275
	3.145000	-0.442417
	3.150000	-0.445705
	3.155000	-0.600275
	3.160000	-0.587120
	3.165000	-0.432550
	3.170000	-0.435839
	3.175000	-0.590409
	3.180000	-0.583832
	3.185000	-0.432550
	3.190000	-0.439128
	3.195000	-0.596987
	3.200000	-0.593698
	3.205000	-0.439128
	3.210000	-0.452283
	3.215000	-0.613430
	3.220000	-0.603564
	3.225000	-0.452283
	3.230000	-0.462149
	3.235000	-0.620008
	3.240000	-0.606853
	3.245000	-0.452283
	3.250000	-0.458860
	3.255000	-0.610141
	3.260000	-0.596987
	3.265000	-0.439128
	3.270000	-0.445705
	3.275000	-0.600275
	3.280000	-0.587120
	3.285000	-0.429262
	3.290000	-0.432550
	3.295000	-0.580543
	3.300000	-0.573965
	3.305000	-0.416107
	3.310000	-0.422684
	3.315000	-0.577254
	3.320000	-0.567388
	3.325000	-0.416107
	3.330000	-0.425973
	3.335000	-0.583832
	3.340000	-0.573965
	3.345000	-0.425973
	3.350000	-0.432550
	3.355000	-0.587120
	3.360000	-0.577254
	3.365000	-0.425973
	3.370000	-0.432550
	3.375000	-0.593698
	3.380000	-0.583832
	3.385000	-0.432550
	3.390000	-0.445705
	3.395000	-0.600275
	3.400000	-0.590409
	3.405000	-0.435839
	3.410000	-0.445705
	3.415000	-0.600275
	3.420000	-0.587120
	3.425000	-0.435839
	3.430000	-0.442417
	3.435000	-0.590409
	3.440000	-0.587120
	3.445000	-0.429262
	3.450000	-0.439128
	3.455000	-0.593698
	3.460000	-0.583832
	3.465000	-0.429262
	3.470000	-0.439128
	3.475000	-0.593698
	3.480000	-0.580543
	3.485000	-0.429262
	3.490000	-0.439128
	3.495000	-0.596987
	3.500000	-0.590409
	3.505000	-0.435839
	3.510000	-0.445705
	3.515000	-0.600275
	3.520000	-0.587120
	3.525000	-0.432550
	3.530000	-0.442417
	3.535000	-0.600275
	3.540000	-0.587120
	3.545000	-0.432550
	3.550000	-0.442417
	3.555000	-0.596987
	3.560000	-0.587120
	3.565000	-0.432550
	3.570000	-0.435839
	3.575000	-0.596987
	3.580000	-0.587120
	3.585000	-0.425973
	3.590000	-0.435839
	3.595000	-0.590409
	3.600000	-0.583832
	3.605000	-0.425973
	3.610000	-0.435839
	3.615000	-0.593698
	3.620000	-0.587120
	3.625000	-0.425973
	3.630000	-0.442417
	3.635000	-0.600275
	3.640000	-0.587120
	3.645000	-0.429262
	3.650000	-0.442417
	3.655000	-0.600275
	3.660000	-0.587120
	3.665000	-0.435839
	3.670000	-0.445705
	3.675000	-0.600275
	3.680000	-0.593698
	3.685000	-0.435839
	3.690000	-0.442417
	3.695000	-0.600275
	3.700000	-0.587120
	3.705000	-0.432550
	3.710000	-0.442417
	3.715000	-0.593698
	3.720000	-0.580543
	3.725000	-0.425973
	3.730000	-0.435839
	3.735000	-0.590409
	3.740000	-0.577254
	3.745000	-0.416107
	3.750000	-0.429262
	3.755000	-0.587120
	3.760000	-0.573965
	3.765000	-0.419395
	3.770000	-0.429262
	3.775000	-0.583832
	3.780000	-0.573965
	3.785000	-0.422684
	3.790000	-0.435839
	3.795000	-0.590409
	3.800000	-0.580543
	3.805000	-0.425973
	3.810000	-0.432550
	3.815000	-0.590409
	3.820000	-0.577254
	3.825000	-0.429262
	3.830000	-0.442417
	3.835000	-0.593698
	3.840000	-0.577254
	3.845000	-0.432550
	3.850000	-0.439128
	3.855000	-0.600275
	3.860000	-0.583832
	3.865000	-0.432550
	3.870000	-0.445705
	3.875000	-0.600275
	3.880000	-0.587120
	3.885000	-0.435839
	3.890000	-0.448994
	3.895000	-0.600275
	3.900000	-0.587120
	3.905000	-0.439128
	3.910000	-0.448994
	3.915000	-0.606853
	3.920000	-0.590409
	3.925000	-0.435839
	3.930000	-0.448994
	3.935000	-0.606853
	3.940000	-0.590409
	3.945000	-0.435839
	3.950000	-0.448994
	3.955000	-0.603564
	3.960000	-0.590409
	3.965000	-0.435839
	3.970000	-0.448994
	3.975000	-0.596987
	3.980000	-0.587120
	3.985000	-0.429262
	3.990000	-0.439128
	3.995000	-0.593698
	4.000000	-0.580543
	4.005000	-0.429262
	4.010000	-0.442417
	4.015000	-0.593698
	4.020000	-0.580543
	4.025000	-0.425973
	4.030000	-0.432550
	4.035000	-0.587120
	4.040000	-0.577254
	4.045000	-0.422684
	4.050000	-0.432550
	4.055000	-0.590409
	4.060000	-0.573965
	4.065000	-0.422684
	4.070000	-0.435839
	4.075000	-0.587120
	4.080000	-0.573965
	4.085000	-0.425973
	4.090000	-0.435839
	4.095000	-0.590409
	4.100000	-0.577254
	4.105000	-0.422684
	4.110000	-0.442417
	4.115000	-0.593698
	4.120000	-0.580543
	4.125000	-0.425973
	4.130000	-0.442417
	4.135000	-0.593698
	4.140000	-0.577254
	4.145000	-0.425973
	4.150000	-0.435839
	4.155000	-0.596987
	4.160000	-0.580543
	4.165000	-0.432550
	4.170000	-0.445705
	4.175000	-0.600275
	4.180000	-0.590409
	4.185000	-0.435839
	4.190000	-0.445705
	4.195000	-0.603564
	4.200000	-0.587120
	4.205000	-0.435839
	4.210000	-0.448994
	4.215000	-0.606853
	4.220000	-0.587120
	4.225000	-0.435839
	4.230000	-0.445705
	4.235000	-0.606853
	4.240000	-0.590409
	4.245000	-0.435839
	4.250000	-0.448994
	4.255000	-0.600275
	4.260000	-0.587120
	4.265000	-0.432550
	4.270000	-0.442417
	4.275000	-0.596987
	4.280000	-0.587120
	4.285000	-0.432550
	4.290000	-0.442417
	4.295000	-0.596987
	4.300000	-0.580543
	4.305000	-0.429262
	4.310000	-0.439128
	4.315000	-0.590409
	4.320000	-0.577254
	4.325000	-0.425973
	4.330000	-0.439128
	4.335000	-0.590409
	4.340000	-0.580543
	4.345000	-0.425973
	4.350000	-0.439128
	4.355000	-0.596987
	4.360000	-0.580543
	4.365000	-0.429262
	4.370000	-0.442417
	4.375000	-0.593698
	4.380000	-0.577254
	4.385000	-0.425973
	4.390000	-0.442417
	4.395000	-0.590409
	4.400000	-0.583832
	4.405000	-0.429262
	4.410000	-0.439128
	4.415000	-0.596987
	4.420000	-0.577254
	4.425000	-0.432550
	4.430000	-0.439128
	4.435000	-0.587120
	4.440000	-0.577254
	4.445000	-0.425973
	4.450000	-0.435839
	4.455000	-0.587120
	4.460000	-0.573965
	4.465000	-0.419395
	4.470000	-0.435839
	4.475000	-0.587120
	4.480000	-0.573965
	4.485000	-0.419395
	4.490000	-0.439128
	4.495000	-0.593698
	4.500000	-0.580543
	4.505000	-0.432550
	4.510000	-0.445705
	4.515000	-0.606853
	4.520000	-0.590409
	4.525000	-0.439128
	4.530000	-0.452283
	4.535000	-0.613430
	4.540000	-0.593698
	4.545000	-0.442417
	4.550000	-0.455571
	4.555000	-0.606853
	4.560000	-0.593698
	4.565000	-0.442417
	4.570000	-0.452283
	4.575000	-0.600275
	4.580000	-0.590409
	4.585000	-0.432550
	4.590000	-0.435839
	4.595000	-0.590409
	4.600000	-0.567388
	4.605000	-0.416107
	4.610000	-0.425973
	4.615000	-0.577254
	4.620000	-0.557522
	4.625000	-0.406241
	4.630000	-0.419395
	4.635000	-0.573965
	4.640000	-0.554233
	4.645000	-0.399663
	4.650000	-0.416107
	4.655000	-0.570677
	4.660000	-0.560811
	4.665000	-0.406241
	4.670000	-0.419395
	4.675000	-0.577254
	4.680000	-0.560811
	4.685000	-0.406241
	4.690000	-0.422684
	4.695000	-0.580543
	4.700000	-0.564099
	4.705000	-0.409529
	4.710000	-0.425973
	4.715000	-0.587120
	4.720000	-0.567388
	4.725000	-0.409529
	4.730000	-0.425973
	4.735000	-0.583832
	4.740000	-0.570677
	4.745000	-0.412818
	4.750000	-0.429262
	4.755000	-0.587120
	4.760000	-0.567388
	4.765000	-0.409529
	4.770000	-0.425973
	4.775000	-0.587120
	4.780000	-0.567388
	4.785000	-0.409529
	4.790000	-0.425973
	4.795000	-0.587120
	4.800000	-0.567388
	4.805000	-0.409529
	4.810000	-0.425973
	4.815000	-0.587120
	4.820000	-0.567388
	4.825000	-0.412818
	4.830000	-0.432550
	4.835000	-0.587120
	4.840000	-0.567388
	4.845000	-0.409529
	4.850000	-0.432550
	4.855000	-0.583832
	4.860000	-0.567388
	4.865000	-0.406241
	4.870000	-0.422684
	4.875000	-0.580543
	4.880000	-0.560811
	4.885000	-0.399663
	4.890000	-0.416107
	4.895000	-0.577254
	4.900000	-0.554233
	4.905000	-0.396374
	4.910000	-0.416107
	4.915000	-0.573965
	4.920000	-0.554233
	4.925000	-0.406241
