2024/7/10 	 16:20:33 
 This file comes from Vt only measurement 	 1.000000E-2 
 Voltage Sensitivity 	 0.000000E+0 
 Sampling rate 	 200 
 Number of samples per channel 	 -1 
 No filter from Labview 	 	 	 
 	 
 ***End_of_Header*** 
 	 Time 	  Voltage 	 Filtered Voltage 	 
	0.000000	-21.916333
	0.005000	-22.496538
	0.010000	-22.303136
	0.015000	-21.658465
	0.020000	-21.884100
	0.025000	-22.561005
	0.030000	-22.270903
	0.035000	-21.626231
	0.040000	-21.916333
	0.045000	-22.561005
	0.050000	-22.206436
	0.055000	-21.529530
	0.060000	-21.819632
	0.065000	-22.561005
	0.070000	-22.303136
	0.075000	-21.626231
	0.080000	-21.884100
	0.085000	-22.561005
	0.090000	-22.141968
	0.095000	-21.561764
	0.100000	-21.851866
	0.105000	-22.496538
	0.110000	-22.238669
	0.115000	-21.561764
	0.120000	-21.884100
	0.125000	-22.464304
	0.130000	-22.206436
	0.135000	-21.529530
	0.140000	-21.787399
	0.145000	-22.432071
	0.150000	-22.109735
	0.155000	-21.497297
	0.160000	-21.787399
	0.165000	-22.496538
	0.170000	-22.141968
	0.175000	-21.497297
	0.180000	-21.787399
	0.185000	-22.367603
	0.190000	-22.109735
	0.195000	-21.529530
	0.200000	-21.722932
	0.205000	-22.432071
	0.210000	-22.141968
	0.215000	-21.465063
	0.220000	-21.658465
	0.225000	-22.399837
	0.230000	-22.045268
	0.235000	-21.368362
	0.240000	-21.755165
	0.245000	-22.367603
	0.250000	-22.077501
	0.255000	-21.400596
	0.260000	-21.658465
	0.265000	-22.335370
	0.270000	-22.077501
	0.275000	-21.432829
	0.280000	-21.690698
	0.285000	-22.399837
	0.290000	-22.045268
	0.295000	-21.400596
	0.300000	-21.658465
	0.305000	-22.367603
	0.310000	-22.045268
	0.315000	-21.336129
	0.320000	-21.658465
	0.325000	-22.303136
	0.330000	-22.077501
	0.335000	-21.368362
	0.340000	-21.593997
	0.345000	-22.270903
	0.350000	-22.045268
	0.355000	-21.303895
	0.360000	-21.690698
	0.365000	-22.335370
	0.370000	-22.013034
	0.375000	-21.336129
	0.380000	-21.658465
	0.385000	-22.270903
	0.390000	-22.045268
	0.395000	-21.336129
	0.400000	-21.561764
	0.405000	-22.238669
	0.410000	-22.013034
	0.415000	-21.336129
	0.420000	-21.626231
	0.425000	-22.270903
	0.430000	-21.980800
	0.435000	-21.303895
	0.440000	-21.561764
	0.445000	-22.270903
	0.450000	-21.980800
	0.455000	-21.368362
	0.460000	-21.593997
	0.465000	-22.270903
	0.470000	-21.980800
	0.475000	-21.336129
	0.480000	-21.561764
	0.485000	-22.238669
	0.490000	-22.013034
	0.495000	-21.368362
	0.500000	-21.529530
	0.505000	-22.270903
	0.510000	-22.045268
	0.515000	-21.303895
	0.520000	-21.593997
	0.525000	-22.238669
	0.530000	-21.948567
	0.535000	-21.303895
	0.540000	-21.593997
	0.545000	-22.238669
	0.550000	-21.980800
	0.555000	-21.303895
	0.560000	-21.593997
	0.565000	-22.270903
	0.570000	-22.013034
	0.575000	-21.303895
	0.580000	-21.593997
	0.585000	-22.270903
	0.590000	-21.980800
	0.595000	-21.400596
	0.600000	-21.497297
	0.605000	-22.270903
	0.610000	-21.916333
	0.615000	-21.303895
	0.620000	-21.593997
	0.625000	-22.206436
	0.630000	-21.980800
	0.635000	-21.271661
	0.640000	-21.497297
	0.645000	-22.206436
	0.650000	-21.916333
	0.655000	-21.271661
	0.660000	-21.497297
	0.665000	-22.206436
	0.670000	-21.916333
	0.675000	-21.207194
	0.680000	-21.497297
	0.685000	-22.141968
	0.690000	-21.884100
	0.695000	-21.207194
	0.700000	-21.529530
	0.705000	-22.077501
	0.710000	-21.851866
	0.715000	-21.207194
	0.720000	-21.465063
	0.725000	-22.174202
	0.730000	-21.884100
	0.735000	-21.174961
	0.740000	-21.465063
	0.745000	-22.141968
	0.750000	-21.948567
	0.755000	-21.142727
	0.760000	-21.400596
	0.765000	-22.077501
	0.770000	-21.851866
	0.775000	-21.174961
	0.780000	-21.400596
	0.785000	-22.077501
	0.790000	-21.851866
	0.795000	-21.110493
	0.800000	-21.368362
	0.805000	-22.109735
	0.810000	-21.787399
	0.815000	-21.142727
	0.820000	-21.271661
	0.825000	-22.077501
	0.830000	-21.722932
	0.835000	-21.078260
	0.840000	-21.368362
	0.845000	-22.013034
	0.850000	-21.787399
	0.855000	-21.078260
	0.860000	-21.432829
	0.865000	-22.045268
	0.870000	-21.819632
	0.875000	-21.078260
	0.880000	-21.336129
	0.885000	-21.916333
	0.890000	-21.722932
	0.895000	-21.142727
	0.900000	-21.271661
	0.905000	-21.948567
	0.910000	-21.690698
	0.915000	-20.981559
	0.920000	-21.336129
	0.925000	-21.980800
	0.930000	-21.658465
	0.935000	-21.078260
	0.940000	-21.239428
	0.945000	-21.916333
	0.950000	-21.722932
	0.955000	-21.013793
	0.960000	-21.336129
	0.965000	-22.045268
	0.970000	-21.722932
	0.975000	-21.046026
	0.980000	-21.271661
	0.985000	-22.013034
	0.990000	-21.658465
	0.995000	-21.013793
	1.000000	-21.271661
	1.005000	-21.916333
	1.010000	-21.626231
	1.015000	-21.013793
	1.020000	-21.271661
	1.025000	-21.916333
	1.030000	-21.658465
	1.035000	-21.046026
	1.040000	-21.336129
	1.045000	-22.013034
	1.050000	-21.658465
	1.055000	-21.046026
	1.060000	-21.271661
	1.065000	-21.948567
	1.070000	-21.722932
	1.075000	-21.046026
	1.080000	-21.303895
	1.085000	-21.884100
	1.090000	-21.658465
	1.095000	-21.046026
	1.100000	-21.271661
	1.105000	-21.948567
	1.110000	-21.658465
	1.115000	-21.078260
	1.120000	-21.174961
	1.125000	-21.819632
	1.130000	-21.593997
	1.135000	-20.981559
	1.140000	-21.239428
	1.145000	-21.884100
	1.150000	-21.593997
	1.155000	-20.917092
	1.160000	-21.142727
	1.165000	-21.884100
	1.170000	-21.658465
	1.175000	-20.917092
	1.180000	-21.174961
	1.185000	-21.819632
	1.190000	-21.593997
	1.195000	-20.917092
	1.200000	-21.046026
	1.205000	-21.787399
	1.210000	-21.561764
	1.215000	-20.820391
	1.220000	-21.110493
	1.225000	-21.755165
	1.230000	-21.465063
	1.235000	-20.788158
	1.240000	-21.013793
	1.245000	-21.690698
	1.250000	-21.432829
	1.255000	-20.723690
	1.260000	-20.949326
	1.265000	-21.561764
	1.270000	-21.400596
	1.275000	-20.594756
	1.280000	-20.852625
	1.285000	-21.368362
	1.290000	-21.078260
	1.295000	-20.401355
	1.300000	-20.433588
	1.305000	-20.949326
	1.310000	-20.562522
	1.315000	-19.692216
	1.320000	-19.692216
	1.325000	-20.079019
	1.330000	-19.627748
	1.335000	-18.692974
	1.340000	-18.660741
	1.345000	-19.240945
	1.350000	-18.789675
	1.355000	-17.983835
	1.360000	-17.983835
	1.365000	-18.660741
	1.370000	-18.435106
	1.375000	-17.532565
	1.380000	-17.725967
	1.385000	-18.338405
	1.390000	-18.080536
	1.395000	-17.371397
	1.400000	-17.532565
	1.405000	-18.241704
	1.410000	-18.016069
	1.415000	-17.242463
	1.420000	-17.500331
	1.425000	-18.177237
	1.430000	-17.887135
	1.435000	-17.242463
	1.440000	-17.339164
	1.445000	-18.080536
	1.450000	-17.854901
	1.455000	-17.145762
	1.460000	-17.306930
	1.465000	-17.983835
	1.470000	-17.693733
	1.475000	-17.113528
	1.480000	-17.210229
	1.485000	-17.919368
	1.490000	-17.725967
	1.495000	-17.016828
	1.500000	-17.081295
	1.505000	-17.790434
	1.510000	-17.532565
	1.515000	-16.855660
	1.520000	-17.049061
	1.525000	-17.629266
	1.530000	-17.435864
	1.535000	-16.758959
	1.540000	-16.920127
	1.545000	-17.468098
	1.550000	-17.274696
	1.555000	-16.597791
	1.560000	-16.791192
	1.565000	-17.339164
	1.570000	-17.177996
	1.575000	-16.436623
	1.580000	-16.662258
	1.585000	-17.242463
	1.590000	-17.049061
	1.595000	-16.372156
	1.600000	-16.630025
	1.605000	-17.210229
	1.610000	-17.081295
	1.615000	-16.372156
	1.620000	-16.597791
	1.625000	-17.177996
	1.630000	-17.016828
	1.635000	-16.404389
	1.640000	-16.501090
	1.645000	-17.210229
	1.650000	-16.952360
	1.655000	-16.372156
	1.660000	-16.468857
	1.665000	-17.210229
	1.670000	-17.049061
	1.675000	-16.307689
	1.680000	-16.468857
	1.685000	-17.177996
	1.690000	-16.952360
	1.695000	-16.275455
	1.700000	-16.468857
	1.705000	-17.081295
	1.710000	-16.952360
	1.715000	-16.307689
	1.720000	-16.501090
	1.725000	-17.113528
	1.730000	-16.984594
	1.735000	-16.372156
	1.740000	-16.501090
	1.745000	-17.210229
	1.750000	-17.016828
	1.755000	-16.372156
	1.760000	-16.533324
	1.765000	-17.177996
	1.770000	-17.049061
	1.775000	-16.436623
	1.780000	-16.533324
	1.785000	-17.242463
	1.790000	-16.984594
	1.795000	-16.468857
	1.800000	-16.694492
	1.805000	-17.306930
	1.810000	-17.113528
	1.815000	-16.533324
	1.820000	-16.726725
	1.825000	-17.403631
	1.830000	-17.242463
	1.835000	-16.662258
	1.840000	-16.758959
	1.845000	-17.468098
	1.850000	-17.403631
	1.855000	-16.726725
	1.860000	-16.952360
	1.865000	-17.693733
	1.870000	-17.532565
	1.875000	-16.984594
	1.880000	-17.145762
	1.885000	-17.919368
	1.890000	-17.822667
	1.895000	-17.371397
	1.900000	-17.629266
	1.905000	-18.402872
	1.910000	-18.435106
	1.915000	-17.887135
	1.920000	-18.241704
	1.925000	-18.983077
	1.930000	-18.950843
	1.935000	-18.435106
	1.940000	-18.821909
	1.945000	-19.563281
	1.950000	-19.595515
	1.955000	-19.176478
	1.960000	-19.466580
	1.965000	-20.498055
	1.970000	-20.465822
	1.975000	-20.111252
	1.980000	-20.562522
	1.985000	-21.368362
	1.990000	-21.497297
	1.995000	-21.046026
	2.000000	-21.465063
	2.005000	-22.270903
	2.010000	-22.238669
	2.015000	-21.851866
	2.020000	-22.109735
	2.025000	-22.883341
	2.030000	-22.883341
	2.035000	-22.270903
	2.040000	-22.528771
	2.045000	-23.173443
	2.050000	-23.108976
	2.055000	-22.561005
	2.060000	-22.754407
	2.065000	-23.528013
	2.070000	-23.334611
	2.075000	-22.754407
	2.080000	-22.947808
	2.085000	-23.656947
	2.090000	-23.528013
	2.095000	-22.883341
	2.100000	-23.108976
	2.105000	-23.753648
	2.110000	-23.592480
	2.115000	-23.044509
	2.120000	-23.108976
	2.125000	-23.818115
	2.130000	-23.624713
	2.135000	-23.076742
	2.140000	-23.237910
	2.145000	-23.914816
	2.150000	-23.721414
	2.155000	-23.108976
	2.160000	-23.173443
	2.165000	-23.914816
	2.170000	-23.721414
	2.175000	-23.076742
	2.180000	-23.270144
	2.185000	-23.947049
	2.190000	-23.785881
	2.195000	-23.108976
	2.200000	-23.302378
	2.205000	-23.882582
	2.210000	-23.753648
	2.215000	-23.108976
	2.220000	-23.270144
	2.225000	-23.882582
	2.230000	-23.753648
	2.235000	-23.141210
	2.240000	-23.205677
	2.245000	-23.947049
	2.250000	-23.689181
	2.255000	-23.076742
	2.260000	-23.237910
	2.265000	-23.947049
	2.270000	-23.721414
	2.275000	-23.076742
	2.280000	-23.173443
	2.285000	-23.785881
	2.290000	-23.785881
	2.295000	-23.044509
	2.300000	-23.173443
	2.305000	-23.753648
	2.310000	-23.656947
	2.315000	-23.012275
	2.320000	-23.012275
	2.325000	-23.850349
	2.330000	-23.624713
	2.335000	-22.915574
	2.340000	-23.012275
	2.345000	-23.689181
	2.350000	-23.592480
	2.355000	-22.883341
	2.360000	-22.980042
	2.365000	-23.689181
	2.370000	-23.431312
	2.375000	-22.818874
	2.380000	-22.947808
	2.385000	-23.528013
	2.390000	-23.399078
	2.395000	-22.754407
	2.400000	-22.818874
	2.405000	-23.528013
	2.410000	-23.302378
	2.415000	-22.722173
	2.420000	-22.818874
	2.425000	-23.463546
	2.430000	-23.302378
	2.435000	-22.561005
	2.440000	-22.786640
	2.445000	-23.334611
	2.450000	-23.205677
	2.455000	-22.561005
	2.460000	-22.689939
	2.465000	-23.366845
	2.470000	-23.237910
	2.475000	-22.528771
	2.480000	-22.689939
	2.485000	-23.270144
	2.490000	-23.108976
	2.495000	-22.399837
	2.500000	-22.561005
	2.505000	-23.141210
	2.510000	-23.076742
	2.515000	-22.367603
	2.520000	-22.432071
	2.525000	-23.108976
	2.530000	-22.947808
	2.535000	-22.238669
	2.540000	-22.367603
	2.545000	-23.108976
	2.550000	-22.980042
	2.555000	-22.238669
	2.560000	-22.367603
	2.565000	-23.076742
	2.570000	-22.786640
	2.575000	-22.206436
	2.580000	-22.270903
	2.585000	-23.012275
	2.590000	-22.786640
	2.595000	-22.109735
	2.600000	-22.141968
	2.605000	-22.883341
	2.610000	-22.722173
	2.615000	-22.045268
	2.620000	-22.077501
	2.625000	-22.786640
	2.630000	-22.722173
	2.635000	-21.980800
	2.640000	-22.045268
	2.645000	-22.818874
	2.650000	-22.657706
	2.655000	-21.980800
	2.660000	-22.109735
	2.665000	-22.786640
	2.670000	-22.593239
	2.675000	-21.980800
	2.680000	-22.109735
	2.685000	-22.754407
	2.690000	-22.657706
	2.695000	-21.948567
	2.700000	-22.077501
	2.705000	-22.786640
	2.710000	-22.625472
	2.715000	-21.884100
	2.720000	-22.109735
	2.725000	-22.786640
	2.730000	-22.561005
	2.735000	-21.851866
	2.740000	-22.077501
	2.745000	-22.689939
	2.750000	-22.528771
	2.755000	-21.819632
	2.760000	-21.948567
	2.765000	-22.689939
	2.770000	-22.528771
	2.775000	-21.787399
	2.780000	-21.916333
	2.785000	-22.593239
	2.790000	-22.561005
	2.795000	-21.819632
	2.800000	-21.916333
	2.805000	-22.625472
	2.810000	-22.464304
	2.815000	-21.755165
	2.820000	-21.916333
	2.825000	-22.561005
	2.830000	-22.496538
	2.835000	-21.787399
	2.840000	-21.884100
	2.845000	-22.496538
	2.850000	-22.496538
	2.855000	-21.755165
	2.860000	-21.884100
	2.865000	-22.561005
	2.870000	-22.335370
	2.875000	-21.722932
	2.880000	-21.787399
	2.885000	-22.464304
	2.890000	-22.432071
	2.895000	-21.658465
	2.900000	-21.722932
	2.905000	-22.464304
	2.910000	-22.399837
	2.915000	-21.690698
	2.920000	-21.819632
	2.925000	-22.464304
	2.930000	-22.335370
	2.935000	-21.626231
	2.940000	-21.755165
	2.945000	-22.432071
	2.950000	-22.367603
	2.955000	-21.593997
	2.960000	-21.787399
	2.965000	-22.496538
	2.970000	-22.303136
	2.975000	-21.626231
	2.980000	-21.755165
	2.985000	-22.496538
	2.990000	-22.238669
	2.995000	-21.593997
	3.000000	-21.658465
	3.005000	-22.399837
	3.010000	-22.335370
	3.015000	-21.593997
	3.020000	-21.690698
	3.025000	-22.399837
	3.030000	-22.303136
	3.035000	-21.626231
	3.040000	-21.658465
	3.045000	-22.399837
	3.050000	-22.303136
	3.055000	-21.561764
	3.060000	-21.755165
	3.065000	-22.464304
	3.070000	-22.367603
	3.075000	-21.626231
	3.080000	-21.787399
	3.085000	-22.367603
	3.090000	-22.335370
	3.095000	-21.626231
	3.100000	-21.658465
	3.105000	-22.432071
	3.110000	-22.399837
	3.115000	-21.593997
	3.120000	-21.658465
	3.125000	-22.399837
	3.130000	-22.303136
	3.135000	-21.593997
	3.140000	-21.690698
	3.145000	-22.335370
	3.150000	-22.335370
	3.155000	-21.593997
	3.160000	-21.626231
	3.165000	-22.399837
	3.170000	-22.303136
	3.175000	-21.593997
	3.180000	-21.626231
	3.185000	-22.367603
	3.190000	-22.270903
	3.195000	-21.561764
	3.200000	-21.690698
	3.205000	-22.399837
	3.210000	-22.303136
	3.215000	-21.593997
	3.220000	-21.626231
	3.225000	-22.367603
	3.230000	-22.303136
	3.235000	-21.593997
	3.240000	-21.626231
	3.245000	-22.432071
	3.250000	-22.238669
	3.255000	-21.593997
	3.260000	-21.690698
	3.265000	-22.335370
	3.270000	-22.303136
	3.275000	-21.626231
	3.280000	-21.561764
	3.285000	-22.335370
	3.290000	-22.270903
	3.295000	-21.529530
	3.300000	-21.658465
	3.305000	-22.367603
	3.310000	-22.270903
	3.315000	-21.593997
	3.320000	-21.658465
	3.325000	-22.432071
	3.330000	-22.303136
	3.335000	-21.561764
	3.340000	-21.755165
	3.345000	-22.464304
	3.350000	-22.335370
	3.355000	-21.690698
	3.360000	-21.722932
	3.365000	-22.496538
	3.370000	-22.464304
	3.375000	-21.755165
	3.380000	-21.819632
	3.385000	-22.561005
	3.390000	-22.464304
	3.395000	-21.755165
	3.400000	-21.819632
	3.405000	-22.625472
	3.410000	-22.528771
	3.415000	-21.755165
	3.420000	-21.851866
	3.425000	-22.625472
	3.430000	-22.496538
	3.435000	-21.787399
	3.440000	-21.916333
	3.445000	-22.689939
	3.450000	-22.561005
	3.455000	-21.819632
	3.460000	-21.884100
	3.465000	-22.561005
	3.470000	-22.561005
	3.475000	-21.819632
	3.480000	-21.916333
	3.485000	-22.593239
	3.490000	-22.561005
	3.495000	-21.755165
	3.500000	-21.787399
	3.505000	-22.593239
	3.510000	-22.496538
	3.515000	-21.787399
	3.520000	-21.916333
	3.525000	-22.528771
	3.530000	-22.464304
	3.535000	-21.722932
	3.540000	-21.851866
	3.545000	-22.528771
	3.550000	-22.432071
	3.555000	-21.819632
	3.560000	-21.755165
	3.565000	-22.464304
	3.570000	-22.399837
	3.575000	-21.690698
	3.580000	-21.787399
	3.585000	-22.464304
	3.590000	-22.367603
	3.595000	-21.658465
	3.600000	-21.690698
	3.605000	-22.367603
	3.610000	-22.367603
	3.615000	-21.561764
	3.620000	-21.529530
	3.625000	-22.303136
	3.630000	-22.174202
	3.635000	-21.497297
	3.640000	-21.529530
	3.645000	-22.303136
	3.650000	-22.141968
	3.655000	-21.465063
	3.660000	-21.432829
	3.665000	-22.109735
	3.670000	-22.109735
	3.675000	-21.303895
	3.680000	-21.400596
	3.685000	-22.045268
	3.690000	-22.045268
	3.695000	-21.271661
	3.700000	-21.271661
	3.705000	-22.045268
	3.710000	-21.948567
	3.715000	-21.303895
	3.720000	-21.271661
	3.725000	-21.948567
	3.730000	-21.916333
	3.735000	-21.174961
	3.740000	-21.239428
	3.745000	-21.916333
	3.750000	-21.819632
	3.755000	-21.110493
	3.760000	-21.271661
	3.765000	-21.819632
	3.770000	-21.851866
	3.775000	-21.142727
	3.780000	-21.110493
	3.785000	-21.851866
	3.790000	-21.819632
	3.795000	-21.142727
	3.800000	-21.110493
	3.805000	-21.787399
	3.810000	-21.819632
	3.815000	-21.046026
	3.820000	-21.078260
	3.825000	-21.787399
	3.830000	-21.658465
	3.835000	-20.949326
	3.840000	-21.046026
	3.845000	-21.722932
	3.850000	-21.722932
	3.855000	-20.981559
	3.860000	-20.981559
	3.865000	-21.787399
	3.870000	-21.690698
	3.875000	-20.949326
	3.880000	-20.981559
	3.885000	-21.658465
	3.890000	-21.561764
	3.895000	-20.852625
	3.900000	-20.884858
	3.905000	-21.690698
	3.910000	-21.561764
	3.915000	-20.788158
	3.920000	-20.788158
	3.925000	-21.465063
	3.930000	-21.497297
	3.935000	-20.691457
	3.940000	-20.659223
	3.945000	-21.336129
	3.950000	-21.174961
	3.955000	-20.336887
	3.960000	-20.046785
	3.965000	-20.659223
	3.970000	-20.369121
	3.975000	-19.498814
	3.980000	-19.369880
	3.985000	-19.853383
	3.990000	-19.659982
	3.995000	-18.757441
	4.000000	-18.692974
	4.005000	-19.208712
	4.010000	-19.112011
	4.015000	-18.338405
	4.020000	-18.306171
	4.025000	-18.918609
	4.030000	-18.789675
	4.035000	-18.048302
	4.040000	-17.983835
	4.045000	-18.596274
	4.050000	-18.499573
	4.055000	-17.661499
	4.060000	-17.597032
	4.065000	-18.241704
	4.070000	-18.080536
	4.075000	-17.403631
	4.080000	-17.274696
	4.085000	-17.951602
	4.090000	-17.822667
	4.095000	-17.145762
	4.100000	-17.145762
	4.105000	-17.725967
	4.110000	-17.629266
	4.115000	-16.984594
	4.120000	-16.984594
	4.125000	-17.564799
	4.130000	-17.532565
	4.135000	-16.791192
	4.140000	-16.823426
	4.145000	-17.435864
	4.150000	-17.306930
	4.155000	-16.597791
	4.160000	-16.565557
	4.165000	-17.242463
	4.170000	-17.210229
	4.175000	-16.501090
	4.180000	-16.468857
	4.185000	-17.145762
	4.190000	-17.081295
	4.195000	-16.339922
	4.200000	-16.404389
	4.205000	-17.049061
	4.210000	-16.952360
	4.215000	-16.243221
	4.220000	-16.275455
	4.225000	-16.952360
	4.230000	-16.952360
	4.235000	-16.243221
	4.240000	-16.210988
	4.245000	-16.984594
	4.250000	-16.823426
	4.255000	-16.210988
	4.260000	-16.178754
	4.265000	-16.855660
	4.270000	-16.726725
	4.275000	-16.082054
	4.280000	-16.017586
	4.285000	-16.630025
	4.290000	-16.630025
	4.295000	-15.953119
	4.300000	-15.985353
	4.305000	-16.662258
	4.310000	-16.630025
	4.315000	-15.985353
	4.320000	-16.017586
	4.325000	-16.662258
	4.330000	-16.630025
	4.335000	-15.985353
	4.340000	-16.049820
	4.345000	-16.758959
	4.350000	-16.758959
	4.355000	-16.082054
	4.360000	-16.017586
	4.365000	-16.758959
	4.370000	-16.694492
	4.375000	-16.178754
	4.380000	-16.082054
	4.385000	-16.791192
	4.390000	-16.920127
	4.395000	-16.210988
	4.400000	-16.275455
	4.405000	-16.952360
	4.410000	-16.952360
	4.415000	-16.372156
	4.420000	-16.307689
	4.425000	-17.016828
	4.430000	-17.049061
	4.435000	-16.468857
	4.440000	-16.404389
	4.445000	-17.113528
	4.450000	-17.177996
	4.455000	-16.533324
	4.460000	-16.565557
	4.465000	-17.177996
	4.470000	-17.242463
	4.475000	-16.630025
	4.480000	-16.630025
	4.485000	-17.274696
	4.490000	-17.339164
	4.495000	-16.758959
	4.500000	-16.758959
	4.505000	-17.403631
	4.510000	-17.403631
	4.515000	-16.887893
	4.520000	-16.823426
	4.525000	-17.532565
	4.530000	-17.597032
	4.535000	-16.952360
	4.540000	-17.016828
	4.545000	-17.693733
	4.550000	-17.758200
	4.555000	-17.242463
	4.560000	-17.371397
	4.565000	-18.112770
	4.570000	-18.177237
	4.575000	-17.661499
	4.580000	-17.725967
	4.585000	-18.467339
	4.590000	-18.596274
	4.595000	-18.048302
	4.600000	-18.241704
	4.605000	-19.079777
	4.610000	-19.273179
	4.615000	-18.789675
	4.620000	-19.015310
	4.625000	-19.756683
	4.630000	-19.885617
	4.635000	-19.402113
	4.640000	-19.531048
	4.645000	-20.240187
	4.650000	-20.465822
	4.655000	-20.046785
	4.660000	-20.143486
	4.665000	-20.949326
	4.670000	-21.174961
	4.675000	-20.594756
	4.680000	-20.788158
	4.685000	-21.497297
	4.690000	-21.690698
