2024/7/11 	 11:35:10 
 This file comes from Vt only measurement 	 1.000000E-1 
 Voltage Sensitivity 	 0.000000E+0 
 Sampling rate 	 200 
 Number of samples per channel 	 -1 
 No filter from Labview 	 	 	 
 	 
 ***End_of_Header*** 
 	 Time 	  Voltage 	 Filtered Voltage 	 
	0.000000	-0.944193
	0.005000	-0.824929
	0.010000	-0.831376
	0.015000	-0.950640
	0.020000	-0.940970
	0.025000	-0.824929
	0.030000	-0.831376
	0.035000	-0.950640
	0.040000	-0.940970
	0.045000	-0.821706
	0.050000	-0.834599
	0.055000	-0.944193
	0.060000	-0.940970
	0.065000	-0.818482
	0.070000	-0.837823
	0.075000	-0.953863
	0.080000	-0.940970
	0.085000	-0.815259
	0.090000	-0.834599
	0.095000	-0.947417
	0.100000	-0.937747
	0.105000	-0.831376
	0.110000	-0.834599
	0.115000	-0.947417
	0.120000	-0.944193
	0.125000	-0.821706
	0.130000	-0.834599
	0.135000	-0.953863
	0.140000	-0.940970
	0.145000	-0.828152
	0.150000	-0.837823
	0.155000	-0.957087
	0.160000	-0.940970
	0.165000	-0.831376
	0.170000	-0.841046
	0.175000	-0.953863
	0.180000	-0.944193
	0.185000	-0.828152
	0.190000	-0.841046
	0.195000	-0.960310
	0.200000	-0.944193
	0.205000	-0.824929
	0.210000	-0.837823
	0.215000	-0.963534
	0.220000	-0.944193
	0.225000	-0.828152
	0.230000	-0.831376
	0.235000	-0.957087
	0.240000	-0.934523
	0.245000	-0.824929
	0.250000	-0.834599
	0.255000	-0.953863
	0.260000	-0.937747
	0.265000	-0.821706
	0.270000	-0.837823
	0.275000	-0.947417
	0.280000	-0.934523
	0.285000	-0.818482
	0.290000	-0.831376
	0.295000	-0.947417
	0.300000	-0.934523
	0.305000	-0.818482
	0.310000	-0.841046
	0.315000	-0.950640
	0.320000	-0.934523
	0.325000	-0.818482
	0.330000	-0.834599
	0.335000	-0.950640
	0.340000	-0.934523
	0.345000	-0.815259
	0.350000	-0.841046
	0.355000	-0.953863
	0.360000	-0.937747
	0.365000	-0.821706
	0.370000	-0.831376
	0.375000	-0.953863
	0.380000	-0.934523
	0.385000	-0.824929
	0.390000	-0.834599
	0.395000	-0.947417
	0.400000	-0.937747
	0.405000	-0.818482
	0.410000	-0.834599
	0.415000	-0.950640
	0.420000	-0.931300
	0.425000	-0.818482
	0.430000	-0.834599
	0.435000	-0.953863
	0.440000	-0.931300
	0.445000	-0.821706
	0.450000	-0.837823
	0.455000	-0.950640
	0.460000	-0.931300
	0.465000	-0.821706
	0.470000	-0.831376
	0.475000	-0.957087
	0.480000	-0.928077
	0.485000	-0.824929
	0.490000	-0.844269
	0.495000	-0.953863
	0.500000	-0.934523
	0.505000	-0.824929
	0.510000	-0.844269
	0.515000	-0.960310
	0.520000	-0.934523
	0.525000	-0.818482
	0.530000	-0.837823
	0.535000	-0.953863
	0.540000	-0.934523
	0.545000	-0.818482
	0.550000	-0.841046
	0.555000	-0.953863
	0.560000	-0.934523
	0.565000	-0.815259
	0.570000	-0.837823
	0.575000	-0.950640
	0.580000	-0.934523
	0.585000	-0.812036
	0.590000	-0.841046
	0.595000	-0.950640
	0.600000	-0.937747
	0.605000	-0.812036
	0.610000	-0.837823
	0.615000	-0.953863
	0.620000	-0.928077
	0.625000	-0.815259
	0.630000	-0.834599
	0.635000	-0.953863
	0.640000	-0.928077
	0.645000	-0.818482
	0.650000	-0.837823
	0.655000	-0.947417
	0.660000	-0.928077
	0.665000	-0.812036
	0.670000	-0.834599
	0.675000	-0.950640
	0.680000	-0.924853
	0.685000	-0.808812
	0.690000	-0.834599
	0.695000	-0.947417
	0.700000	-0.928077
	0.705000	-0.805589
	0.710000	-0.837823
	0.715000	-0.953863
	0.720000	-0.924853
	0.725000	-0.818482
	0.730000	-0.837823
	0.735000	-0.953863
	0.740000	-0.924853
	0.745000	-0.812036
	0.750000	-0.837823
	0.755000	-0.953863
	0.760000	-0.924853
	0.765000	-0.815259
	0.770000	-0.834599
	0.775000	-0.953863
	0.780000	-0.924853
	0.785000	-0.815259
	0.790000	-0.850716
	0.795000	-0.953863
	0.800000	-0.928077
	0.805000	-0.812036
	0.810000	-0.841046
	0.815000	-0.953863
	0.820000	-0.924853
	0.825000	-0.805589
	0.830000	-0.841046
	0.835000	-0.950640
	0.840000	-0.924853
	0.845000	-0.818482
	0.850000	-0.837823
	0.855000	-0.950640
	0.860000	-0.918407
	0.865000	-0.812036
	0.870000	-0.847493
	0.875000	-0.960310
	0.880000	-0.928077
	0.885000	-0.812036
	0.890000	-0.850716
	0.895000	-0.953863
	0.900000	-0.924853
	0.905000	-0.824929
	0.910000	-0.857163
	0.915000	-0.969980
	0.920000	-0.940970
	0.925000	-0.828152
	0.930000	-0.857163
	0.935000	-0.969980
	0.940000	-0.937747
	0.945000	-0.824929
	0.950000	-0.857163
	0.955000	-0.969980
	0.960000	-0.931300
	0.965000	-0.821706
	0.970000	-0.853939
	0.975000	-0.966757
	0.980000	-0.934523
	0.985000	-0.821706
	0.990000	-0.850716
	0.995000	-0.950640
	1.000000	-0.921630
	1.005000	-0.812036
	1.010000	-0.834599
	1.015000	-0.937747
	1.020000	-0.905513
	1.025000	-0.786249
	1.030000	-0.815259
	1.035000	-0.921630
	1.040000	-0.876503
	1.045000	-0.766909
	1.050000	-0.789472
	1.055000	-0.895843
	1.060000	-0.850716
	1.065000	-0.741122
	1.070000	-0.773355
	1.075000	-0.876503
	1.080000	-0.837823
	1.085000	-0.728228
	1.090000	-0.757239
	1.095000	-0.860386
	1.100000	-0.828152
	1.105000	-0.712112
	1.110000	-0.750792
	1.115000	-0.847493
	1.120000	-0.812036
	1.125000	-0.708888
	1.130000	-0.747569
	1.135000	-0.841046
	1.140000	-0.805589
	1.145000	-0.702441
	1.150000	-0.737898
	1.155000	-0.841046
	1.160000	-0.808812
	1.165000	-0.695995
	1.170000	-0.741122
	1.175000	-0.834599
	1.180000	-0.805589
	1.185000	-0.702441
	1.190000	-0.734675
	1.195000	-0.844269
	1.200000	-0.805589
	1.205000	-0.708888
	1.210000	-0.737898
	1.215000	-0.841046
	1.220000	-0.808812
	1.225000	-0.705665
	1.230000	-0.744345
	1.235000	-0.850716
	1.240000	-0.805589
	1.245000	-0.712112
	1.250000	-0.757239
	1.255000	-0.850716
	1.260000	-0.821706
	1.265000	-0.718558
	1.270000	-0.763685
	1.275000	-0.866833
	1.280000	-0.834599
	1.285000	-0.731452
	1.290000	-0.763685
	1.295000	-0.870056
	1.300000	-0.831376
	1.305000	-0.731452
	1.310000	-0.783025
	1.315000	-0.882950
	1.320000	-0.847493
	1.325000	-0.747569
	1.330000	-0.789472
	1.335000	-0.889396
	1.340000	-0.857163
	1.345000	-0.760462
	1.350000	-0.799142
	1.355000	-0.911960
	1.360000	-0.873280
	1.365000	-0.779802
	1.370000	-0.812036
	1.375000	-0.921630
	1.380000	-0.889396
	1.385000	-0.783025
	1.390000	-0.834599
	1.395000	-0.937747
	1.400000	-0.899066
	1.405000	-0.795919
	1.410000	-0.844269
	1.415000	-0.950640
	1.420000	-0.908736
	1.425000	-0.812036
	1.430000	-0.844269
	1.435000	-0.960310
	1.440000	-0.911960
	1.445000	-0.808812
	1.450000	-0.853939
	1.455000	-0.957087
	1.460000	-0.911960
	1.465000	-0.802366
	1.470000	-0.844269
	1.475000	-0.953863
	1.480000	-0.908736
	1.485000	-0.802366
	1.490000	-0.844269
	1.495000	-0.940970
	1.500000	-0.905513
	1.505000	-0.799142
	1.510000	-0.837823
	1.515000	-0.940970
	1.520000	-0.899066
	1.525000	-0.789472
	1.530000	-0.834599
	1.535000	-0.934523
	1.540000	-0.889396
	1.545000	-0.783025
	1.550000	-0.824929
	1.555000	-0.934523
	1.560000	-0.879726
	1.565000	-0.779802
	1.570000	-0.828152
	1.575000	-0.928077
	1.580000	-0.873280
	1.585000	-0.776579
	1.590000	-0.815259
	1.595000	-0.928077
	1.600000	-0.882950
	1.605000	-0.773355
	1.610000	-0.815259
	1.615000	-0.918407
	1.620000	-0.876503
	1.625000	-0.776579
	1.630000	-0.818482
	1.635000	-0.924853
	1.640000	-0.876503
	1.645000	-0.773355
	1.650000	-0.812036
	1.655000	-0.915183
	1.660000	-0.879726
	1.665000	-0.773355
	1.670000	-0.815259
	1.675000	-0.924853
	1.680000	-0.863609
	1.685000	-0.773355
	1.690000	-0.812036
	1.695000	-0.921630
	1.700000	-0.870056
	1.705000	-0.770132
	1.710000	-0.821706
	1.715000	-0.918407
	1.720000	-0.873280
	1.725000	-0.770132
	1.730000	-0.818482
	1.735000	-0.915183
	1.740000	-0.879726
	1.745000	-0.773355
	1.750000	-0.821706
	1.755000	-0.921630
	1.760000	-0.876503
	1.765000	-0.773355
	1.770000	-0.821706
	1.775000	-0.931300
	1.780000	-0.876503
	1.785000	-0.776579
	1.790000	-0.831376
	1.795000	-0.924853
	1.800000	-0.876503
	1.805000	-0.779802
	1.810000	-0.828152
	1.815000	-0.931300
	1.820000	-0.879726
	1.825000	-0.783025
	1.830000	-0.841046
	1.835000	-0.937747
	1.840000	-0.889396
	1.845000	-0.792696
	1.850000	-0.834599
	1.855000	-0.950640
	1.860000	-0.899066
	1.865000	-0.792696
	1.870000	-0.841046
	1.875000	-0.947417
	1.880000	-0.895843
	1.885000	-0.792696
	1.890000	-0.844269
	1.895000	-0.947417
	1.900000	-0.895843
	1.905000	-0.799142
	1.910000	-0.850716
	1.915000	-0.950640
	1.920000	-0.899066
	1.925000	-0.799142
	1.930000	-0.844269
	1.935000	-0.953863
	1.940000	-0.899066
	1.945000	-0.802366
	1.950000	-0.850716
	1.955000	-0.957087
	1.960000	-0.899066
	1.965000	-0.799142
	1.970000	-0.853939
	1.975000	-0.957087
	1.980000	-0.902290
	1.985000	-0.808812
	1.990000	-0.857163
	1.995000	-0.953863
	2.000000	-0.899066
	2.005000	-0.802366
	2.010000	-0.857163
	2.015000	-0.960310
	2.020000	-0.908736
	2.025000	-0.799142
	2.030000	-0.850716
	2.035000	-0.953863
	2.040000	-0.902290
	2.045000	-0.805589
	2.050000	-0.857163
	2.055000	-0.960310
	2.060000	-0.902290
	2.065000	-0.805589
	2.070000	-0.853939
	2.075000	-0.957087
	2.080000	-0.892620
	2.085000	-0.802366
	2.090000	-0.860386
	2.095000	-0.957087
	2.100000	-0.899066
	2.105000	-0.795919
	2.110000	-0.857163
	2.115000	-0.963534
	2.120000	-0.899066
	2.125000	-0.799142
	2.130000	-0.857163
	2.135000	-0.957087
	2.140000	-0.899066
	2.145000	-0.805589
	2.150000	-0.860386
	2.155000	-0.953863
	2.160000	-0.895843
	2.165000	-0.799142
	2.170000	-0.857163
	2.175000	-0.957087
	2.180000	-0.895843
	2.185000	-0.805589
	2.190000	-0.857163
	2.195000	-0.953863
	2.200000	-0.899066
	2.205000	-0.802366
	2.210000	-0.863609
	2.215000	-0.953863
	2.220000	-0.892620
	2.225000	-0.799142
	2.230000	-0.866833
	2.235000	-0.960310
	2.240000	-0.902290
	2.245000	-0.792696
	2.250000	-0.860386
	2.255000	-0.960310
	2.260000	-0.899066
	2.265000	-0.799142
	2.270000	-0.863609
	2.275000	-0.957087
	2.280000	-0.892620
	2.285000	-0.795919
	2.290000	-0.863609
	2.295000	-0.957087
	2.300000	-0.899066
	2.305000	-0.795919
	2.310000	-0.857163
	2.315000	-0.960310
	2.320000	-0.892620
	2.325000	-0.795919
	2.330000	-0.863609
	2.335000	-0.957087
	2.340000	-0.889396
	2.345000	-0.795919
	2.350000	-0.860386
	2.355000	-0.957087
	2.360000	-0.892620
	2.365000	-0.792696
	2.370000	-0.853939
	2.375000	-0.953863
	2.380000	-0.892620
	2.385000	-0.792696
	2.390000	-0.857163
	2.395000	-0.957087
	2.400000	-0.882950
	2.405000	-0.792696
	2.410000	-0.857163
	2.415000	-0.947417
	2.420000	-0.882950
	2.425000	-0.792696
	2.430000	-0.853939
	2.435000	-0.944193
	2.440000	-0.879726
	2.445000	-0.789472
	2.450000	-0.850716
	2.455000	-0.947417
	2.460000	-0.876503
	2.465000	-0.786249
	2.470000	-0.850716
	2.475000	-0.950640
	2.480000	-0.873280
	2.485000	-0.786249
	2.490000	-0.847493
	2.495000	-0.947417
	2.500000	-0.879726
	2.505000	-0.783025
	2.510000	-0.857163
	2.515000	-0.947417
	2.520000	-0.876503
	2.525000	-0.783025
	2.530000	-0.847493
	2.535000	-0.950640
	2.540000	-0.879726
	2.545000	-0.792696
	2.550000	-0.853939
	2.555000	-0.940970
	2.560000	-0.879726
	2.565000	-0.786249
	2.570000	-0.853939
	2.575000	-0.947417
	2.580000	-0.873280
	2.585000	-0.783025
	2.590000	-0.857163
	2.595000	-0.950640
	2.600000	-0.876503
	2.605000	-0.789472
	2.610000	-0.857163
	2.615000	-0.953863
	2.620000	-0.879726
	2.625000	-0.786249
	2.630000	-0.857163
	2.635000	-0.944193
	2.640000	-0.873280
	2.645000	-0.783025
	2.650000	-0.853939
	2.655000	-0.950640
	2.660000	-0.879726
	2.665000	-0.786249
	2.670000	-0.853939
	2.675000	-0.944193
	2.680000	-0.879726
	2.685000	-0.786249
	2.690000	-0.860386
	2.695000	-0.953863
	2.700000	-0.879726
	2.705000	-0.783025
	2.710000	-0.863609
	2.715000	-0.947417
	2.720000	-0.876503
	2.725000	-0.789472
	2.730000	-0.857163
	2.735000	-0.944193
	2.740000	-0.879726
	2.745000	-0.786249
	2.750000	-0.863609
	2.755000	-0.953863
	2.760000	-0.879726
	2.765000	-0.789472
	2.770000	-0.863609
	2.775000	-0.947417
	2.780000	-0.876503
	2.785000	-0.792696
	2.790000	-0.866833
	2.795000	-0.953863
	2.800000	-0.873280
	2.805000	-0.783025
	2.810000	-0.860386
	2.815000	-0.957087
	2.820000	-0.879726
	2.825000	-0.786249
	2.830000	-0.866833
	2.835000	-0.950640
	2.840000	-0.876503
	2.845000	-0.792696
	2.850000	-0.863609
	2.855000	-0.953863
	2.860000	-0.879726
	2.865000	-0.783025
	2.870000	-0.863609
	2.875000	-0.947417
	2.880000	-0.870056
	2.885000	-0.789472
	2.890000	-0.860386
	2.895000	-0.953863
	2.900000	-0.876503
	2.905000	-0.795919
	2.910000	-0.863609
	2.915000	-0.953863
	2.920000	-0.879726
	2.925000	-0.789472
	2.930000	-0.866833
	2.935000	-0.953863
	2.940000	-0.876503
	2.945000	-0.789472
	2.950000	-0.860386
	2.955000	-0.944193
	2.960000	-0.876503
	2.965000	-0.789472
	2.970000	-0.863609
	2.975000	-0.953863
	2.980000	-0.866833
	2.985000	-0.783025
	2.990000	-0.857163
	2.995000	-0.940970
	3.000000	-0.857163
	3.005000	-0.773355
	3.010000	-0.853939
	3.015000	-0.934523
	3.020000	-0.850716
	3.025000	-0.770132
	3.030000	-0.841046
	3.035000	-0.921630
	3.040000	-0.841046
	3.045000	-0.763685
	3.050000	-0.831376
	3.055000	-0.918407
	3.060000	-0.841046
	3.065000	-0.754015
	3.070000	-0.831376
	3.075000	-0.911960
	3.080000	-0.828152
	3.085000	-0.744345
	3.090000	-0.821706
	3.095000	-0.895843
	3.100000	-0.818482
	3.105000	-0.731452
	3.110000	-0.805589
	3.115000	-0.895843
	3.120000	-0.805589
	3.125000	-0.728228
	3.130000	-0.795919
	3.135000	-0.876503
	3.140000	-0.792696
	3.145000	-0.715335
	3.150000	-0.786249
	3.155000	-0.866833
	3.160000	-0.786249
	3.165000	-0.702441
	3.170000	-0.773355
	3.175000	-0.853939
	3.180000	-0.776579
	3.185000	-0.695995
	3.190000	-0.773355
	3.195000	-0.850716
	3.200000	-0.770132
	3.205000	-0.689548
	3.210000	-0.773355
	3.215000	-0.847493
	3.220000	-0.766909
	3.225000	-0.689548
	3.230000	-0.766909
	3.235000	-0.844269
	3.240000	-0.760462
	3.245000	-0.683101
	3.250000	-0.760462
	3.255000	-0.841046
	3.260000	-0.763685
	3.265000	-0.679878
	3.270000	-0.760462
	3.275000	-0.834599
	3.280000	-0.760462
	3.285000	-0.683101
	3.290000	-0.760462
	3.295000	-0.834599
	3.300000	-0.754015
	3.305000	-0.683101
	3.310000	-0.760462
	3.315000	-0.834599
	3.320000	-0.757239
	3.325000	-0.676655
	3.330000	-0.754015
	3.335000	-0.831376
	3.340000	-0.750792
	3.345000	-0.670208
	3.350000	-0.747569
	3.355000	-0.821706
	3.360000	-0.737898
	3.365000	-0.657314
	3.370000	-0.744345
	3.375000	-0.815259
	3.380000	-0.734675
	3.385000	-0.660538
	3.390000	-0.734675
	3.395000	-0.812036
	3.400000	-0.737898
	3.405000	-0.663761
	3.410000	-0.744345
	3.415000	-0.824929
	3.420000	-0.737898
	3.425000	-0.663761
	3.430000	-0.747569
	3.435000	-0.828152
	3.440000	-0.744345
	3.445000	-0.670208
	3.450000	-0.760462
	3.455000	-0.831376
	3.460000	-0.757239
	3.465000	-0.683101
	3.470000	-0.770132
	3.475000	-0.844269
	3.480000	-0.766909
	3.485000	-0.695995
	3.490000	-0.783025
	3.495000	-0.863609
	3.500000	-0.783025
	3.505000	-0.708888
	3.510000	-0.802366
	3.515000	-0.870056
	3.520000	-0.792696
	3.525000	-0.721782
	3.530000	-0.812036
	3.535000	-0.876503
	3.540000	-0.802366
	3.545000	-0.731452
	3.550000	-0.805589
	3.555000	-0.892620
	3.560000	-0.802366
	3.565000	-0.741122
	3.570000	-0.818482
	3.575000	-0.895843
	3.580000	-0.808812
	3.585000	-0.737898
	3.590000	-0.824929
	3.595000	-0.902290
	3.600000	-0.808812
	3.605000	-0.741122
	3.610000	-0.831376
	3.615000	-0.902290
	3.620000	-0.812036
	3.625000	-0.750792
	3.630000	-0.834599
	3.635000	-0.908736
	3.640000	-0.821706
	3.645000	-0.754015
	3.650000	-0.841046
	3.655000	-0.908736
	3.660000	-0.828152
	3.665000	-0.763685
	3.670000	-0.847493
	3.675000	-0.928077
	3.680000	-0.834599
	3.685000	-0.766909
	3.690000	-0.853939
	3.695000	-0.924853
	3.700000	-0.834599
	3.705000	-0.766909
	3.710000	-0.850716
	3.715000	-0.934523
	3.720000	-0.834599
	3.725000	-0.770132
	3.730000	-0.853939
	3.735000	-0.931300
	3.740000	-0.841046
	3.745000	-0.776579
	3.750000	-0.863609
	3.755000	-0.937747
	3.760000	-0.850716
	3.765000	-0.776579
	3.770000	-0.863609
	3.775000	-0.937747
	3.780000	-0.853939
	3.785000	-0.779802
	3.790000	-0.876503
	3.795000	-0.944193
	3.800000	-0.853939
	3.805000	-0.789472
	3.810000	-0.879726
	3.815000	-0.944193
	3.820000	-0.857163
	3.825000	-0.789472
	3.830000	-0.879726
	3.835000	-0.947417
	3.840000	-0.857163
	3.845000	-0.786249
	3.850000	-0.876503
	3.855000	-0.940970
	3.860000	-0.853939
	3.865000	-0.795919
	3.870000	-0.882950
	3.875000	-0.947417
	3.880000	-0.853939
	3.885000	-0.792696
	3.890000	-0.882950
	3.895000	-0.957087
	3.900000	-0.863609
	3.905000	-0.802366
	3.910000	-0.886173
	3.915000	-0.953863
	3.920000	-0.860386
	3.925000	-0.792696
	3.930000	-0.886173
	3.935000	-0.960310
	3.940000	-0.863609
	3.945000	-0.799142
	3.950000	-0.889396
	3.955000	-0.960310
	3.960000	-0.863609
	3.965000	-0.799142
	3.970000	-0.889396
	3.975000	-0.960310
	3.980000	-0.866833
	3.985000	-0.805589
	3.990000	-0.889396
	3.995000	-0.957087
	4.000000	-0.860386
	4.005000	-0.792696
	4.010000	-0.889396
	4.015000	-0.957087
	4.020000	-0.863609
	4.025000	-0.795919
	4.030000	-0.886173
	4.035000	-0.960310
	4.040000	-0.863609
	4.045000	-0.792696
	4.050000	-0.892620
	4.055000	-0.960310
	4.060000	-0.863609
	4.065000	-0.802366
	4.070000	-0.889396
	4.075000	-0.957087
	4.080000	-0.866833
	4.085000	-0.792696
	4.090000	-0.895843
	4.095000	-0.950640
	4.100000	-0.866833
	4.105000	-0.799142
	4.110000	-0.895843
	4.115000	-0.960310
	4.120000	-0.863609
	4.125000	-0.792696
	4.130000	-0.902290
	4.135000	-0.957087
	4.140000	-0.863609
	4.145000	-0.792696
	4.150000	-0.892620
	4.155000	-0.963534
	4.160000	-0.860386
	4.165000	-0.795919
	4.170000	-0.892620
	4.175000	-0.963534
	4.180000	-0.863609
	4.185000	-0.799142
	4.190000	-0.895843
	4.195000	-0.950640
	4.200000	-0.866833
	4.205000	-0.792696
	4.210000	-0.892620
	4.215000	-0.953863
	4.220000	-0.863609
	4.225000	-0.792696
	4.230000	-0.892620
	4.235000	-0.953863
	4.240000	-0.850716
	4.245000	-0.792696
	4.250000	-0.899066
	4.255000	-0.957087
	4.260000	-0.853939
	4.265000	-0.792696
	4.270000	-0.892620
	4.275000	-0.953863
	4.280000	-0.857163
	4.285000	-0.795919
	4.290000	-0.892620
	4.295000	-0.953863
	4.300000	-0.850716
	4.305000	-0.792696
	4.310000	-0.889396
	4.315000	-0.957087
	4.320000	-0.847493
	4.325000	-0.792696
	4.330000	-0.889396
	4.335000	-0.950640
	4.340000	-0.853939
	4.345000	-0.792696
	4.350000	-0.892620
	4.355000	-0.947417
	4.360000	-0.850716
	4.365000	-0.792696
	4.370000	-0.889396
	4.375000	-0.947417
	4.380000	-0.850716
	4.385000	-0.789472
	4.390000	-0.892620
	4.395000	-0.947417
	4.400000	-0.850716
	4.405000	-0.792696
	4.410000	-0.892620
	4.415000	-0.947417
	4.420000	-0.844269
	4.425000	-0.789472
	4.430000	-0.889396
	4.435000	-0.934523
	4.440000	-0.841046
	4.445000	-0.786249
	4.450000	-0.879726
	4.455000	-0.937747
	4.460000	-0.841046
	4.465000	-0.786249
	4.470000	-0.882950
	4.475000	-0.944193
	4.480000	-0.844269
	4.485000	-0.779802
	4.490000	-0.886173
	4.495000	-0.940970
	4.500000	-0.837823
	4.505000	-0.779802
	4.510000	-0.886173
	4.515000	-0.944193
	4.520000	-0.841046
	4.525000	-0.779802
	4.530000	-0.882950
	4.535000	-0.940970
	4.540000	-0.837823
	4.545000	-0.776579
	4.550000	-0.876503
	4.555000	-0.931300
	4.560000	-0.841046
	4.565000	-0.779802
	4.570000	-0.879726
	4.575000	-0.931300
	4.580000	-0.834599
	4.585000	-0.783025
	4.590000	-0.879726
	4.595000	-0.940970
	4.600000	-0.834599
	4.605000	-0.776579
	4.610000	-0.876503
	4.615000	-0.937747
	4.620000	-0.831376
	4.625000	-0.786249
	4.630000	-0.879726
	4.635000	-0.937747
	4.640000	-0.837823
	4.645000	-0.783025
	4.650000	-0.882950
	4.655000	-0.934523
	4.660000	-0.834599
	4.665000	-0.776579
	4.670000	-0.882950
	4.675000	-0.937747
	4.680000	-0.834599
	4.685000	-0.786249
	4.690000	-0.882950
	4.695000	-0.934523
	4.700000	-0.834599
	4.705000	-0.779802
	4.710000	-0.882950
	4.715000	-0.937747
	4.720000	-0.831376
	4.725000	-0.776579
	4.730000	-0.889396
	4.735000	-0.937747
	4.740000	-0.834599
	4.745000	-0.779802
	4.750000	-0.879726
	4.755000	-0.937747
	4.760000	-0.834599
	4.765000	-0.779802
	4.770000	-0.876503
	4.775000	-0.934523
	4.780000	-0.837823
	4.785000	-0.783025
	4.790000	-0.889396
	4.795000	-0.944193
	4.800000	-0.837823
	4.805000	-0.786249
	4.810000	-0.889396
	4.815000	-0.934523
	4.820000	-0.824929
	4.825000	-0.776579
	4.830000	-0.879726
	4.835000	-0.934523
	4.840000	-0.831376
	4.845000	-0.773355
	4.850000	-0.889396
	4.855000	-0.931300
	4.860000	-0.834599
	4.865000	-0.783025
	4.870000	-0.886173
	4.875000	-0.937747
	4.880000	-0.828152
	4.885000	-0.789472
	4.890000	-0.889396
	4.895000	-0.931300
	4.900000	-0.824929
	4.905000	-0.783025
	4.910000	-0.889396
	4.915000	-0.934523
	4.920000	-0.824929
	4.925000	-0.779802
